 time,AF3,F7,F3,FC5,T7,P7,O1,O2,P8,T8,FC6,F4,F8,AF4
0,3828.717855,4245.640922,4588.717837,4192.30759,3773.333241,4338.461432,4015.384517,4190.769128,4323.589638,4013.333235,4286.666562,4248.205024,4407.6922,4210.769128
0.0078125,3828.717855,4245.640922,4588.717837,4192.30759,3773.333241,4338.461432,4015.384517,4190.769128,4323.589638,4013.333235,4286.666562,4248.205024,4407.6922,4210.769128
0.015625,3828.205035,4240.512717,4588.717837,4187.692205,3767.692216,4339.487073,4025.128107,4194.871692,4322.563997,4014.871697,4286.153741,4244.615281,4407.6922,4210.769128
0.0234375,3829.743496,4240.512717,4586.666555,4181.025539,3768.205036,4337.948612,4025.128107,4200.512718,4322.563997,4012.307594,4280.512716,4244.615281,4401.538354,4214.871692
0.03125,3823.07683,4237.435794,4576.922965,4174.871693,3775.384523,4341.025535,4018.974261,4199.999897,4326.15374,4008.717851,4275.384511,4238.974255,4392.820405,4207.692205
0.0390625,3819.487086,4236.922973,4572.820401,4170.256308,3771.79478,4346.66656,4022.051184,4202.051179,4326.15374,4008.717851,4275.384511,4236.922973,4391.794764,4202.564
0.046875,3824.102471,4240.512717,4575.384504,4171.281949,3764.615293,4346.15374,4028.71785,4207.179384,4328.205022,4014.871697,4283.589639,4242.051178,4399.999892,4212.82041
0.0546875,3833.33324,4245.640922,4581.025529,4178.461436,3772.3076,4343.589637,4024.102466,4204.615282,4329.743484,4017.435799,4289.743485,4250.769127,4405.640918,4225.128102
0.0625,3838.974265,4251.281947,4585.640914,4187.179385,3783.076831,4339.999894,4014.871697,4194.358872,4323.076817,4010.256312,4287.179382,4254.35887,4405.640918,4225.640922
0.0703125,3841.538368,4258.461434,4593.333221,4193.846051,3777.435805,4332.307586,4012.820415,4185.128103,4316.410151,4001.025543,4283.589639,4256.410152,4403.076815,4223.58964
0.078125,3842.051188,4266.666562,4602.56399,4198.974256,3768.205036,4328.205022,4016.410158,4183.076821,4318.461433,4002.564005,4289.230664,4263.076819,4402.563995,4228.205025
0.0859375,3848.205034,4271.794767,4607.179375,4209.230666,3768.717857,4327.179381,4018.974261,4187.179385,4322.563997,4010.256312,4294.87169,4272.307588,4406.153738,4231.794768
0.09375,3852.820419,4272.820408,4607.179375,4220.512717,3765.640934,4319.487074,4021.538363,4194.871692,4326.666561,4014.871697,4292.820408,4274.35887,4406.153738,4231.794768
0.1015625,3850.256316,4270.256306,4604.615272,4220.512717,3757.435806,4313.846048,4027.179389,4204.615282,4328.205022,4015.897338,4289.743485,4269.743485,4399.487072,4229.230666
0.109375,3840.512727,4263.076819,4601.025529,4211.281948,3752.307601,4318.461433,4031.281953,4211.794769,4324.615279,4014.358876,4289.743485,4266.666562,4394.871687,4223.58964
0.1171875,3833.33324,4257.435793,4597.435785,4202.564,3747.179396,4321.025535,4030.769132,4216.410153,4324.102458,4015.384517,4289.743485,4265.640921,4394.871687,4217.948615
0.125,3834.871701,4258.974255,4594.358862,4196.410154,3745.640934,4317.435792,4028.71785,4211.794769,4327.179381,4016.922979,4284.102459,4262.051178,4389.230662,4213.846051
0.1328125,3837.435804,4260.512716,4589.230657,4193.846051,3750.256319,4321.538356,4031.794773,4206.153743,4326.666561,4018.46144,4282.051177,4258.974255,4385.128098,4214.871692
0.140625,3835.384522,4261.538357,4590.769119,4191.281949,3748.205037,4332.307586,4038.46144,4212.307589,4328.717843,4017.94862,4287.179382,4262.563998,4387.17938,4217.948615
0.1484375,3834.358881,4263.076819,4593.333221,4183.589641,3750.769139,4333.846048,4038.46144,4219.999897,4332.820407,4019.487081,4290.769126,4264.10246,4390.769123,4220.512717
0.15625,3835.384522,4256.922973,4591.281939,4171.79477,3766.153754,4323.589638,4029.230671,4206.666564,4327.692202,4019.999902,4289.743485,4262.563998,4393.333226,4221.025538
0.1640625,3837.948624,4253.333229,4588.205016,4169.230667,3774.871703,4320.512715,4025.640927,4189.743487,4320.512715,4014.871697,4290.256305,4261.025537,4393.333226,4228.717845
0.171875,3846.153752,4256.410152,4597.435785,4174.871693,3766.153754,4324.102458,4021.538363,4191.281949,4318.974253,4009.230671,4292.307587,4264.61528,4392.820405,4242.051178
0.1796875,3849.230675,4255.897332,4601.538349,4177.435795,3759.487088,4319.487074,4012.307594,4192.30759,4321.025535,4010.256312,4291.281946,4262.563998,4393.846046,4246.666563
0.1875,3843.58965,4254.871691,4590.769119,4169.743488,3754.358883,4311.281946,4013.846056,4186.666564,4321.538356,4009.230671,4287.179382,4253.333229,4391.281944,4242.051178
0.1953125,3839.487086,4259.999896,4581.025529,4159.999898,3748.717857,4310.769125,4023.076825,4190.256308,4323.589638,4007.69221,4285.640921,4250.256306,4388.205021,4239.999896
0.203125,3841.538368,4265.128101,4584.102452,4156.922975,3748.205037,4313.333228,4022.051184,4205.640923,4329.230663,4017.435799,4288.205023,4258.461434,4390.256303,4243.076819
0.2109375,3841.538368,4267.692203,4591.281939,4162.564001,3746.153755,4314.358869,4021.025543,4219.999897,4330.769125,4026.666568,4294.358869,4265.128101,4393.846046,4247.179383
0.21875,3845.128111,4269.743485,4595.384503,4170.256308,3743.076832,4316.410151,4029.230671,4226.666563,4330.256304,4029.230671,4298.974254,4270.256306,4394.871687,4252.820409
0.2265625,3847.692214,4264.10246,4593.846042,4168.205026,3743.076832,4314.358869,4027.692209,4221.025538,4330.256304,4026.666568,4292.820408,4272.820408,4391.794764,4252.820409
0.234375,3845.640932,4261.538357,4587.692196,4167.179385,3736.922986,4312.820407,4026.153748,4211.281948,4329.230663,4016.410158,4283.589639,4265.128101,4387.6922,4247.692204
0.2421875,3846.666573,4267.692203,4589.230657,4175.384513,3727.179396,4316.922971,4037.948619,4215.897333,4325.64092,4013.333235,4286.153741,4262.051178,4385.640918,4249.743486
0.25,3847.179393,4264.61528,4591.281939,4177.435795,3730.76914,4313.333228,4041.025542,4216.410153,4323.076817,4017.435799,4288.717844,4263.589639,4386.666559,4250.256306
0.2578125,3842.564009,4253.84605,4585.640914,4167.179385,3733.846063,4298.461433,4026.153748,4196.922974,4319.487074,4007.179389,4277.435793,4258.461434,4383.076816,4238.974255
0.265625,3838.461445,4256.922973,4578.461427,4164.615283,3722.051191,4289.230664,4015.897338,4183.076821,4318.974253,3996.922979,4270.769126,4253.333229,4377.948611,4231.794768
0.2734375,3844.10247,4263.589639,4584.102452,4174.871693,3714.358884,4287.179382,4012.307594,4182.05118,4321.025535,4005.640928,4279.487075,4262.563998,4382.051175,4237.948614
0.28125,3853.84606,4260.512716,4590.769119,4185.640923,3722.051191,4287.692203,4012.307594,4185.640923,4321.025535,4015.384517,4287.179382,4272.307588,4390.769123,4245.128101
0.2890625,3852.307598,4256.922973,4594.358862,4187.692205,3723.076832,4290.256305,4021.025543,4191.794769,4322.051176,4012.820415,4287.692203,4272.820408,4389.743482,4244.615281
0.296875,3843.58965,4258.461434,4593.846042,4191.281949,3721.538371,4295.38451,4030.256312,4199.487077,4326.666561,4016.410158,4289.743485,4271.794767,4388.205021,4246.666563
0.3046875,3845.128111,4261.538357,4596.410144,4193.846051,3733.846063,4298.974254,4028.20503,4201.538359,4327.179381,4024.615286,4294.87169,4277.435793,4394.871687,4252.820409
0.3125,3849.743496,4265.128101,4596.410144,4190.769128,3741.02555,4299.999895,4027.692209,4208.717846,4326.666561,4028.71785,4298.461433,4278.461434,4398.461431,4254.35887
0.3203125,3844.10247,4268.717844,4590.769119,4188.717846,3725.640935,4298.461433,4036.410158,4224.102461,4329.743484,4027.179389,4295.897331,4272.820408,4393.846046,4254.35887
0.328125,3837.435804,4269.230665,4584.615273,4186.153744,3715.897345,4298.461433,4039.999901,4232.820409,4330.256304,4021.538363,4289.743485,4271.281947,4388.717841,4254.35887
0.3359375,3839.487086,4271.794767,4582.05117,4176.410154,3723.589653,4293.333228,4025.128107,4219.999897,4323.589638,4012.307594,4283.589639,4272.820408,4384.615277,4252.307588
0.34375,3841.025547,4276.410152,4579.487068,4165.128103,3726.666576,4284.102459,4012.820415,4196.410154,4317.948612,4003.076825,4278.461434,4271.281947,4381.538354,4249.743486
0.3515625,3843.58965,4275.384511,4577.435786,4159.487078,3719.999909,4284.61528,4017.435799,4186.153744,4316.410151,3997.94862,4274.35887,4271.281947,4382.051175,4249.743486
0.359375,3849.230675,4274.87169,4579.999888,4158.974257,3725.640935,4290.769126,4021.538363,4190.256308,4319.999894,4002.564005,4276.410152,4276.410152,4385.640918,4250.256306
0.3671875,3857.435803,4286.666562,4585.640914,4163.589642,3743.589652,4293.333228,4019.999902,4195.897333,4325.128099,4014.358876,4285.640921,4282.563998,4389.743482,4255.384511
0.375,3865.640931,4296.922972,4591.281939,4171.281949,3750.769139,4293.846049,4021.538363,4198.461436,4326.666561,4019.487081,4291.794767,4287.179382,4392.820405,4264.61528
0.3828125,3870.256316,4298.974254,4593.846042,4173.846052,3753.846062,4292.307587,4020.512722,4198.974256,4325.128099,4019.487081,4291.281946,4285.1281,4394.358867,4270.769126
0.390625,3870.256316,4302.051177,4597.435785,4168.205026,3754.871703,4288.205023,4012.307594,4193.846051,4325.64092,4020.512722,4290.769126,4284.61528,4392.307585,4274.35887
0.3984375,3871.281957,4307.179382,4603.076811,4167.179385,3744.615293,4289.230664,4015.384517,4191.794769,4327.179381,4024.615286,4296.410151,4291.281946,4392.307585,4279.487075
0.40625,3872.820418,4309.230664,4607.692195,4176.410154,3738.974268,4290.256305,4025.640927,4201.025538,4328.205022,4026.153748,4297.948613,4292.307587,4393.333226,4281.025536
0.4140625,3866.153752,4307.692202,4595.897324,4178.974257,3748.717857,4287.692203,4029.743491,4217.948615,4331.281945,4024.102466,4290.256305,4281.538357,4385.640918,4274.35887
0.421875,3856.410162,4300.512715,4576.410145,4168.717847,3749.230678,4289.230664,4027.179389,4220.512717,4331.794766,4016.410158,4276.922972,4271.281947,4373.333226,4262.051178
0.4296875,3854.871701,4297.435792,4569.743478,4168.717847,3740.512729,4295.38451,4024.615286,4211.281948,4329.743484,4013.846056,4270.256306,4266.153742,4374.871688,4254.871691
0.4375,3862.051188,4304.615279,4579.999888,4176.410154,3739.999909,4294.87169,4029.230671,4215.897333,4327.179381,4017.435799,4273.333229,4271.794767,4379.487072,4256.410152
0.4453125,3868.205034,4314.871689,4586.153734,4175.384513,3743.076832,4290.256305,4037.435799,4225.128102,4328.205022,4022.564004,4279.999895,4282.563998,4378.461431,4261.025537
0.453125,3873.333239,4315.89733,4589.743478,4173.333231,3747.179396,4287.692203,4035.384517,4217.435794,4327.692202,4021.025543,4284.61528,4288.205023,4381.538354,4264.61528
0.4609375,3876.922982,4307.179382,4593.333221,4177.948616,3752.307601,4286.153741,4029.743491,4210.769128,4324.615279,4015.384517,4284.102459,4286.153741,4386.666559,4265.128101
0.46875,3884.102469,4300.512715,4597.948606,4185.640923,3751.28196,4281.538357,4029.230671,4215.384512,4324.102458,4018.46144,4288.717844,4289.743485,4388.717841,4273.333229
0.4765625,3889.743495,4302.051177,4604.102452,4192.30759,3752.307601,4274.35887,4018.974261,4204.102461,4325.64092,4025.640927,4291.281946,4295.897331,4391.281944,4280.512716
0.484375,3888.205033,4295.897331,4601.025529,4192.82041,3762.05119,4267.179383,4002.564005,4180.512718,4323.076817,4018.974261,4287.179382,4293.846049,4387.17938,4275.897331
0.4921875,3885.12811,4284.61528,4594.871683,4188.717846,3768.717857,4258.461434,4000.512723,4175.384513,4320.512715,4011.281953,4285.1281,4295.38451,4379.487072,4271.794767
0.5,3886.153751,4278.974254,4594.871683,4190.256308,3771.281959,4255.384511,4008.717851,4186.153744,4322.051176,4018.974261,4289.743485,4304.102459,4380.512713,4271.281947
0.5078125,3884.61529,4276.410152,4597.948606,4189.230667,3778.461446,4260.512716,4012.820415,4192.82041,4324.615279,4022.051184,4292.307587,4310.769125,4379.999893,4266.666562
0.515625,3880.512726,4277.435793,4589.230657,4182.564,3788.717856,4265.640921,4021.025543,4197.435795,4327.692202,4017.435799,4286.153741,4308.205023,4373.846047,4262.051178
0.5234375,3878.974264,4283.589639,4578.974247,4176.410154,3788.717856,4265.640921,4026.666568,4201.538359,4327.692202,4016.922979,4278.461434,4299.999895,4371.794765,4259.999896
0.53125,3877.948623,4286.153741,4574.358863,4166.153744,3788.205036,4269.743485,4023.589645,4207.179384,4327.692202,4016.922979,4277.435793,4289.743485,4373.846047,4255.384511
0.5390625,3877.435803,4284.102459,4574.358863,4156.410155,3794.871702,4276.922972,4018.974261,4209.743487,4330.256304,4016.922979,4275.384511,4287.179382,4372.307585,4252.307588
0.546875,3884.102469,4292.307587,4579.999888,4161.025539,3797.948625,4283.076818,4027.179389,4211.281948,4331.794766,4018.974261,4274.35887,4291.794767,4374.358867,4259.999896
0.5546875,3894.358879,4305.64092,4591.281939,4172.820411,3792.82042,4286.153741,4042.564004,4216.922974,4330.769125,4017.94862,4280.512716,4297.435792,4379.487072,4270.769126
0.5625,3896.410161,4310.256305,4596.922965,4177.435795,3799.999907,4284.102459,4043.076824,4224.102461,4330.256304,4016.922979,4286.153741,4301.025536,4381.538354,4279.999895
0.5703125,3895.897341,4311.794766,4599.487067,4178.461436,3813.33324,4274.35887,4027.692209,4219.487076,4328.717843,4018.974261,4283.589639,4304.615279,4380.512713,4281.538357
0.578125,3896.922982,4313.333228,4598.974247,4182.564,3812.82042,4262.051178,4014.358876,4199.487077,4325.128099,4018.46144,4284.61528,4305.1281,4381.538354,4280.512716
0.5859375,3901.025546,4314.358869,4601.025529,4190.769128,3813.846061,4258.461434,4013.333235,4189.230667,4324.615279,4018.46144,4292.307587,4308.205023,4384.102457,4285.1281
0.59375,3906.666571,4316.410151,4609.230657,4199.487077,3824.615291,4262.051178,4019.487081,4195.384513,4328.205022,4025.128107,4300.512715,4312.307587,4387.17938,4284.102459
0.6015625,3908.717853,4315.38451,4614.871682,4203.07682,3827.692214,4263.589639,4021.025543,4198.461436,4328.205022,4031.281953,4301.538356,4312.820407,4389.230662,4278.461434
0.609375,3904.615289,4308.717843,4613.333221,4197.435795,3827.179394,4261.025537,4015.384517,4193.333231,4325.64092,4027.692209,4295.897331,4310.256305,4385.128098,4275.384511
0.6171875,3905.64093,4303.076818,4610.256298,4191.281949,3834.358881,4265.128101,4017.435799,4192.82041,4325.64092,4022.051184,4295.897331,4306.153741,4382.051175,4269.743485
0.625,3910.769135,4302.051177,4606.666554,4192.30759,3838.461445,4272.820408,4027.179389,4198.461436,4328.205022,4021.025543,4295.897331,4301.538356,4379.487072,4256.922973
0.6328125,3907.179392,4298.974254,4594.358862,4191.281949,3845.640932,4277.435793,4028.20503,4202.564,4330.769125,4020.512722,4286.666562,4297.435792,4373.846047,4244.10246
0.640625,3896.922982,4296.410151,4583.076811,4176.410154,3856.922983,4278.461434,4026.153748,4202.051179,4332.820407,4016.922979,4278.974254,4301.538356,4367.17938,4235.384512
0.6484375,3893.333238,4299.999895,4575.897324,4163.076821,3854.871701,4278.461434,4032.307594,4202.051179,4330.769125,4010.256312,4273.846049,4304.615279,4362.563996,4228.717845
0.65625,3898.974264,4306.666561,4574.871683,4161.53836,3844.615291,4279.487075,4036.410158,4203.07682,4323.589638,4001.025543,4265.640921,4306.153741,4357.948611,4227.692204
0.6640625,3906.153751,4321.025535,4579.487068,4162.564001,3849.230675,4284.61528,4039.487081,4203.07682,4322.051176,3999.999902,4264.61528,4309.230664,4356.41015,4230.256307
0.671875,3914.358879,4341.025535,4592.820401,4168.205026,3858.461444,4287.692203,4040.512722,4203.07682,4329.230663,4008.717851,4273.333229,4314.871689,4359.999893,4239.487076
0.6796875,3926.666571,4357.948611,4605.128093,4177.435795,3856.922983,4285.640921,4038.97426,4208.717846,4332.820407,4016.922979,4282.563998,4317.435792,4366.66656,4253.333229
0.6875,3936.922981,4369.230662,4608.717836,4178.974257,3858.461444,4277.948613,4035.897337,4209.230666,4329.230663,4019.999902,4287.179382,4316.410151,4371.281944,4257.948614
0.6953125,3940.512724,4376.92297,4611.794759,4181.538359,3875.384521,4266.666562,4033.846055,4204.102461,4327.179381,4025.640927,4292.307587,4317.948612,4374.358867,4264.10246
0.703125,3948.205032,4378.461431,4627.179374,4189.743487,3889.230674,4258.974255,4025.640927,4202.564,4326.666561,4034.358876,4303.589638,4326.666561,4381.025534,4279.999895
0.7109375,3954.871698,4374.358867,4638.461425,4191.281949,3887.179392,4255.384511,4012.820415,4197.948615,4323.076817,4037.435799,4314.871689,4327.179381,4387.17938,4289.743485
0.71875,3953.846057,4375.384508,4634.871682,4187.179385,3885.12811,4245.128101,4002.051184,4186.153744,4319.999894,4031.281953,4313.333228,4314.358869,4384.102457,4281.538357
0.7265625,3948.717852,4376.410149,4626.666554,4187.179385,3886.153751,4231.794768,3993.846056,4180.512718,4322.051176,4025.128107,4303.589638,4315.38451,4377.948611,4269.230665
0.734375,3948.717852,4378.461431,4622.051169,4189.743487,3885.12811,4234.871691,3996.410159,4186.666564,4325.64092,4027.179389,4304.615279,4318.461433,4378.461431,4265.128101
0.7421875,3946.66657,4386.153739,4621.025528,4187.692205,3889.743495,4249.743486,4006.153748,4197.435795,4330.256304,4033.333235,4309.743484,4349.230663,4382.051175,4263.076819
0.75,3944.102468,4390.256303,4619.487067,4183.589641,3895.897341,4260.512716,4013.333235,4207.692205,4336.41015,4041.538363,4309.230664,4561.53835,4381.025534,4264.61528
0.7578125,3942.051186,4388.205021,4614.358862,4177.948616,3893.333238,4264.61528,4021.538363,4215.897333,4337.435791,4042.564004,4307.179382,4959.999879,4376.92297,4267.692203
0.765625,3941.538365,4388.717841,4606.153734,4171.281949,3900.512725,4271.281947,4032.307594,4217.948615,4332.307586,4034.871696,4307.179382,5282.563973,4373.333226,4268.205024
0.7734375,3939.999904,4390.769123,4600.512708,4166.666565,3916.410161,4277.948613,4035.384517,4213.846051,4330.769125,4026.666568,4306.666561,5427.179354,4366.153739,4269.743485
0.78125,3933.846058,4395.384508,4594.358862,4164.615283,3921.538366,4280.512716,4039.487081,4215.897333,4333.846048,4026.153748,4307.692202,5524.61525,4361.538355,4276.410152
0.7890625,3930.256314,4403.589636,4595.384503,4162.564001,3918.974263,4278.974254,4044.102465,4214.358871,4330.256304,4025.640927,4312.307587,5617.43576,4363.589637,4285.640921
0.796875,3938.461442,4420.512712,4603.589631,4166.666565,3925.64093,4277.435793,4037.435799,4206.666564,4326.666561,4026.153748,4321.025535,5666.153708,4369.743483,4293.846049
0.8046875,3951.794775,4439.999891,4610.256298,4175.384513,3932.820417,4272.820408,4022.051184,4198.461436,4330.256304,4027.692209,4327.692202,5688.71781,4372.820406,4299.999895
0.8125,3954.871698,4450.256301,4607.179375,4175.384513,3930.769135,4265.128101,4013.846056,4192.82041,4330.256304,4026.153748,4325.128099,5698.97422,4369.230662,4295.897331
0.8203125,3949.743493,4452.820404,4603.589631,4171.79477,3929.230673,4257.948614,4013.846056,4189.230667,4327.179381,4024.615286,4321.025535,5694.871656,4364.615278,4285.1281
0.828125,3948.717852,4463.076814,4604.102452,4178.461436,3932.820417,4256.922973,4013.846056,4189.230667,4329.743484,4029.230671,4322.563997,5681.538323,4365.640919,4278.461434
0.8359375,3953.846057,4478.461429,4607.179375,4185.128103,3931.794776,4259.487075,4009.230671,4193.333231,4334.358868,4034.358876,4326.15374,5657.435759,4368.205021,4273.846049
0.84375,3954.358878,4490.769121,4605.128093,4187.692205,3934.358878,4260.512716,4007.179389,4196.922974,4334.871689,4035.897337,4326.15374,5620.512683,4366.153739,4263.589639
0.8515625,3950.256314,4502.563992,4599.487067,4188.205026,3941.025545,4256.922973,4010.769133,4199.999897,4333.846048,4033.846055,4319.487074,5573.846018,4366.66656,4251.794768
0.859375,3947.692211,4511.281941,4594.871683,4183.076821,3934.871699,4253.333229,4017.94862,4202.051179,4331.794766,4025.640927,4308.717843,5513.333199,4365.128098,4243.076819
0.8671875,3948.717852,4515.897325,4593.846042,4185.128103,3928.717853,4253.84605,4027.179389,4207.179384,4331.794766,4016.922979,4301.538356,5448.204995,4358.974252,4236.922973
0.875,3945.128109,4518.461428,4592.820401,4191.794769,3934.871699,4253.333229,4024.615286,4208.717846,4331.794766,4014.871697,4294.358869,5382.563971,4353.333227,4228.717845
0.8828125,3941.025545,4524.615274,4588.717837,4189.230667,3932.307596,4254.35887,4024.102466,4207.692205,4330.769125,4015.897338,4287.179382,5312.307562,4352.307586,4227.179384
0.890625,3944.102468,4539.999889,4592.820401,4186.666564,3924.102468,4258.461434,4037.435799,4207.179384,4331.794766,4017.435799,4290.769126,5244.102436,4355.384509,4238.974255
0.8984375,3948.205032,4554.358863,4599.487067,4189.230667,3933.846058,4252.307588,4039.487081,4204.615282,4331.281945,4018.974261,4295.897331,5176.41013,4360.512714,4252.307588
0.90625,3948.205032,4557.435786,4599.487067,4184.102462,3941.538365,4234.871691,4023.076825,4194.871692,4324.615279,4016.922979,4290.256305,5108.717824,4361.538355,4254.35887
0.9140625,3952.820416,4561.53835,4601.025529,4184.615282,3942.564006,4233.33323,4018.46144,4189.230667,4325.64092,4022.564004,4292.307587,5044.615261,4364.615278,4255.384511
0.921875,3962.051185,4569.743478,4613.333221,4196.410154,3949.230673,4249.230665,4027.179389,4196.410154,4334.871689,4036.410158,4302.563997,4990.769109,4370.256303,4262.051178
0.9296875,3958.461442,4564.102452,4613.333221,4195.384513,3953.846057,4252.820409,4026.666568,4205.640923,4337.948612,4038.97426,4299.487074,4932.307572,4367.17938,4259.999896
0.9375,3953.846057,4554.358863,4607.692195,4188.205026,3946.66657,4249.743486,4024.615286,4209.230666,4335.384509,4031.794773,4295.897331,4883.076804,4363.076816,4256.410152
0.9453125,3963.589647,4560.512709,4612.8204,4197.948615,3945.128109,4267.692203,4034.358876,4216.410153,4339.487073,4036.410158,4305.64092,4851.794753,4371.794765,4269.230665
0.953125,3968.205031,4561.025529,4614.871682,4202.564,3950.256314,4281.538357,4033.333235,4219.999897,4341.025535,4040.512722,4303.589638,4818.974241,4373.333226,4275.384511
0.9609375,3953.333237,4543.076812,4598.974247,4191.794769,3950.256314,4267.692203,4022.051184,4212.82041,4334.871689,4026.666568,4285.640921,4777.948601,4361.025534,4262.563998
0.96875,3942.051186,4534.358863,4585.128093,4185.640923,3943.076827,4257.435793,4027.179389,4213.33323,4328.717843,4011.281953,4272.820408,4749.230653,4349.230663,4255.384511
0.9765625,3945.640929,4544.102453,4587.179375,4187.692205,3936.922981,4264.10246,4041.538363,4223.58964,4328.205022,4007.179389,4271.281947,4736.922961,4347.179381,4262.563998
0.984375,3952.307596,4549.743478,4593.333221,4190.256308,3932.820417,4263.076819,4039.999901,4223.58964,4331.281945,4010.256312,4274.87169,4732.820397,4351.794765,4266.666562
0.9921875,3952.820416,4549.743478,4595.384503,4191.281949,3924.102468,4253.84605,4033.846055,4211.794769,4328.717843,4010.256312,4277.435793,4729.230654,4355.897329,4267.692203
1,3954.358878,4556.922965,4597.948606,4192.30759,3925.128109,4255.384511,4035.897337,4204.615282,4324.102458,4007.69221,4280.512716,4730.769115,4356.92297,4275.897331
1.0078125,3964.615288,4567.179375,4608.205016,4199.487077,3933.333237,4264.61528,4039.999901,4208.205025,4329.230663,4016.410158,4291.281946,4744.615269,4365.128098,4290.769126
1.015625,3972.307595,4567.692196,4615.384503,4209.230666,3932.307596,4271.794767,4045.640927,4211.794769,4334.358868,4030.256312,4301.538356,4753.846038,4376.92297,4300.512715
1.0234375,3964.102467,4558.974247,4609.230657,4203.589641,3927.692212,4266.666562,4037.948619,4199.487077,4327.692202,4028.20503,4296.410151,4750.769115,4373.333226,4296.410151
1.03125,3956.92298,4550.769119,4597.435785,4191.794769,3930.769135,4259.487075,4022.051184,4189.230667,4327.692202,4028.20503,4294.87169,4750.256294,4368.205021,4294.358869
1.0390625,3957.948621,4548.717837,4598.974247,4194.871692,3930.256314,4260.512716,4014.358876,4190.769128,4335.89733,4035.384517,4298.974254,4757.948602,4369.743483,4296.922972
1.046875,3952.820416,4549.743478,4601.025529,4203.07682,3926.666571,4264.61528,4013.846056,4193.333231,4338.461432,4031.281953,4292.820408,4756.922961,4367.17938,4296.410151
1.0546875,3950.256314,4556.410145,4596.410144,4201.538359,3931.281955,4265.128101,4017.94862,4196.922974,4335.89733,4025.128107,4286.153741,4756.922961,4361.538355,4292.307587
1.0625,3952.820416,4564.102452,4592.820401,4199.999897,3936.922981,4270.256306,4028.20503,4207.179384,4336.41015,4028.71785,4286.153741,4762.051166,4363.076816,4287.179382
1.0703125,3950.256314,4570.769119,4595.897324,4204.615282,3933.333237,4271.794767,4034.871696,4216.410153,4335.89733,4028.20503,4282.563998,4770.256294,4363.589637,4278.461434
1.078125,3948.717852,4581.53835,4597.948606,4208.205025,3933.333237,4272.307588,4040.512722,4222.563999,4333.846048,4023.589645,4279.999895,4779.999883,4361.025534,4273.846049
1.0859375,3958.974262,4593.846042,4605.640913,4210.769128,3938.461442,4275.384511,4049.743491,4228.717845,4332.307586,4026.153748,4284.61528,4792.820396,4365.640919,4278.974254
1.09375,3967.692211,4595.897324,4616.922964,4219.487076,3945.128109,4273.333229,4053.846055,4234.871691,4333.333227,4032.307594,4291.281946,4809.743472,4374.358867,4287.692203
1.1015625,3969.743493,4592.820401,4622.56399,4223.07682,3952.820416,4266.153742,4049.23067,4236.410153,4335.384509,4033.846055,4297.435792,4828.20501,4378.974252,4295.38451
1.109375,3968.205031,4591.281939,4624.615272,4217.948615,3956.92298,4262.051178,4044.615286,4231.281948,4334.358868,4030.256312,4297.948613,4839.487061,4374.871688,4296.410151
1.1171875,3967.692211,4584.615273,4622.051169,4218.461435,3951.794775,4259.487075,4042.051183,4228.205025,4331.281945,4023.589645,4293.333228,4842.563984,4368.205021,4292.307587
1.125,3972.307595,4577.435786,4625.640913,4223.07682,3947.692211,4262.563998,4037.948619,4224.615281,4330.256304,4022.564004,4296.410151,4854.871676,4369.743483,4292.307587
1.1328125,3974.358877,4573.846042,4631.794759,4224.615281,3948.717852,4271.794767,4036.410158,4212.307589,4328.717843,4026.666568,4303.589638,4868.71783,4374.358867,4299.487074
1.140625,3967.692211,4563.589632,4631.281938,4225.640922,3942.051186,4276.410152,4032.307594,4200.512718,4324.102458,4022.564004,4301.025536,4871.281932,4369.230662,4301.025536
1.1484375,3961.538365,4556.922965,4619.999887,4225.640922,3938.974263,4279.487075,4027.692209,4201.538359,4326.15374,4015.897338,4293.846049,4868.71783,4361.538355,4291.794767
1.15625,3958.974262,4559.487068,4613.333221,4222.563999,3937.948622,4284.61528,4030.769132,4204.102461,4333.846048,4019.487081,4291.281946,4872.307573,4359.487073,4282.051177
1.1640625,3952.307596,4557.948606,4607.692195,4219.487076,3932.307596,4286.666562,4037.435799,4202.051179,4334.358868,4024.615286,4289.230664,4869.743471,4358.461432,4272.307588
1.171875,3942.051186,4546.666555,4597.435785,4214.871692,3932.820417,4282.563998,4032.307594,4192.30759,4328.717843,4017.94862,4279.999895,4865.128086,4349.230663,4254.871691
1.1796875,3935.89734,4543.076812,4587.179375,4208.205025,3931.281955,4276.410152,4025.128107,4186.153744,4328.717843,4011.281953,4273.846049,4864.102445,4342.051176,4237.948614
1.1875,3935.89734,4543.589632,4586.153734,4206.666564,3910.769135,4271.794767,4028.20503,4194.358872,4331.281945,4011.281953,4273.846049,4866.666548,4341.025535,4231.794768
1.1953125,3939.487083,4541.53835,4591.281939,4211.794769,3901.538366,4273.333229,4039.487081,4215.897333,4332.820407,4017.94862,4277.435793,4872.307573,4345.640919,4241.025537
1.203125,3946.15375,4542.563991,4604.102452,4222.051179,3916.410161,4275.384511,4044.102465,4231.281948,4334.358868,4028.71785,4289.230664,4888.717829,4352.307586,4259.487075
1.2109375,3952.307596,4548.717837,4617.435785,4232.307589,3922.051186,4273.333229,4039.487081,4229.743486,4334.358868,4032.820414,4300.512715,4903.076803,4355.897329,4264.10246
1.21875,3956.41016,4551.79476,4620.512708,4232.820409,3915.89734,4269.230665,4033.333235,4224.615281,4333.333227,4029.230671,4298.461433,4903.589624,4354.871688,4255.897332
1.2265625,3954.871698,4545.128094,4617.435785,4229.743486,3912.820417,4265.128101,4034.358876,4230.256307,4334.358868,4029.743491,4295.38451,4901.538342,4353.846047,4253.84605
1.234375,3957.948621,4538.461427,4624.102451,4237.948614,3909.743494,4266.153742,4041.538363,4239.487076,4335.384509,4033.333235,4303.589638,4909.230649,4358.974252,4258.461434
1.2421875,3965.640929,4541.53835,4632.307579,4248.205024,3912.307597,4265.128101,4036.410158,4232.820409,4332.820407,4031.281953,4307.179382,4912.820393,4360.512714,4257.948614
1.25,3963.589647,4543.589632,4626.153733,4246.153742,3922.051186,4258.461434,4022.564004,4218.461435,4329.230663,4027.179389,4299.999895,4904.102444,4352.820406,4253.84605
1.2578125,3953.333237,4537.435786,4617.435785,4239.487076,3919.999904,4257.435793,4025.128107,4213.33323,4326.666561,4022.564004,4294.358869,4897.435778,4344.102458,4250.256306
1.265625,3951.281955,4533.846043,4615.384503,4240.512717,3915.89734,4269.230665,4043.076824,4219.999897,4330.256304,4019.999902,4293.846049,4901.025521,4343.589637,4252.307588
1.2734375,3954.871698,4535.384504,4618.461426,4247.692204,3922.564007,4281.538357,4050.769132,4228.717845,4335.384509,4026.666568,4293.333228,4904.102444,4345.640919,4261.538357
1.28125,3951.794775,4532.307581,4612.8204,4250.769127,3928.717853,4288.205023,4051.794773,4237.435794,4336.41015,4033.846055,4289.230664,4895.897316,4345.128099,4267.179383
1.2890625,3946.66657,4527.692197,4604.615272,4243.58964,3929.743494,4290.769126,4056.922978,4247.692204,4335.89733,4030.256312,4285.1281,4887.179368,4343.589637,4261.025537
1.296875,3948.205032,4530.76912,4603.076811,4245.640922,3929.743494,4293.333228,4063.589644,4254.871691,4338.461432,4030.769132,4289.230664,4885.128086,4343.076817,4253.333229
1.3046875,3952.820416,4534.358863,4611.281939,4264.61528,3930.769135,4293.846049,4066.153747,4253.333229,4339.999894,4035.897337,4294.87169,4889.23065,4344.102458,4255.897332
1.3125,3952.307596,4531.28194,4616.922964,4271.281947,3941.025545,4291.794767,4062.051183,4249.230665,4336.922971,4035.897337,4294.87169,4887.692188,4347.179381,4265.640921
1.3203125,3948.205032,4527.692197,4618.461426,4265.640921,3947.692211,4285.640921,4054.358875,4247.179383,4333.846048,4033.333235,4295.38451,4879.999881,4351.794765,4269.743485
1.328125,3950.256314,4530.256299,4619.999887,4270.769126,3946.66657,4278.461434,4045.640927,4243.58964,4335.384509,4037.435799,4300.512715,4874.871676,4359.487073,4274.87169
1.3359375,3957.948621,4538.461427,4626.153733,4281.025536,3951.794775,4277.948613,4041.538363,4237.948614,4336.922971,4041.538363,4305.1281,4880.512701,4366.153739,4287.179382
1.34375,3960.512724,4543.076812,4631.794759,4284.61528,3956.92298,4287.179382,4047.692209,4240.512717,4334.358868,4040.512722,4306.153741,4882.051163,4367.692201,4293.333228
1.3515625,3959.999903,4543.076812,4630.256297,4282.563998,3953.846057,4290.769126,4049.743491,4245.128101,4333.333227,4033.333235,4306.153741,4873.846035,4364.615278,4287.692203
1.359375,3957.948621,4539.487068,4626.666554,4274.87169,3954.358878,4284.61528,4044.615286,4242.563999,4336.41015,4030.769132,4305.64092,4867.692189,4363.589637,4277.948613
1.3671875,3955.384519,4532.820402,4627.692195,4268.717844,3957.435801,4279.999895,4044.102465,4236.922973,4333.333227,4034.871696,4303.076818,4861.538343,4365.640919,4270.769126
1.375,3953.333237,4529.230658,4631.281938,4271.794767,3952.820416,4279.487075,4044.102465,4237.948614,4328.717843,4033.333235,4300.512715,4854.358856,4364.615278,4271.794767
1.3828125,3957.948621,4539.999889,4632.8204,4282.051177,3950.256314,4281.025536,4044.615286,4248.205024,4335.384509,4031.281953,4303.589638,4853.333215,4364.102457,4278.974254
1.390625,3959.487083,4547.692196,4635.384502,4288.717844,3953.846057,4284.61528,4050.769132,4253.84605,4340.512714,4032.820414,4306.153741,4852.820394,4365.640919,4277.435793
1.3984375,3954.871698,4535.384504,4635.897323,4289.230664,3957.948621,4288.205023,4056.922978,4251.794768,4336.41015,4034.358876,4305.1281,4841.025523,4365.128098,4276.410152
1.40625,3956.41016,4525.128094,4636.410143,4286.666562,3955.897339,4289.230664,4055.897337,4250.256306,4334.358868,4033.846055,4306.153741,4834.871677,4361.538355,4289.743485
1.4140625,3957.948621,4525.128094,4631.794759,4288.205023,3948.205032,4288.717844,4059.48708,4251.281947,4334.358868,4028.71785,4302.563997,4826.153728,4355.384509,4295.38451
1.421875,3951.794775,4521.02553,4627.179374,4289.743485,3938.974263,4283.589639,4061.025542,4245.128101,4331.281945,4017.435799,4289.743485,4807.69219,4348.205022,4282.563998
1.4296875,3950.256314,4522.051171,4625.128092,4286.153741,3935.89734,4278.974254,4055.384516,4242.563999,4331.794766,4017.435799,4286.666562,4797.43578,4350.256304,4282.051177
1.4375,3962.051185,4531.28194,4632.307579,4286.666562,3942.564006,4279.999895,4050.769132,4246.666563,4336.41015,4029.230671,4298.461433,4803.589626,4359.999893,4296.922972
1.4453125,3970.256313,4535.384504,4639.999887,4295.897331,3946.66657,4288.717844,4055.384516,4252.307588,4338.974253,4032.307594,4307.179382,4803.589626,4364.615278,4305.64092
1.453125,3972.307595,4535.897325,4640.512707,4298.974254,3941.025545,4294.87169,4062.564003,4252.307588,4336.922971,4026.153748,4303.076818,4792.307575,4362.051175,4309.230664
1.4609375,3972.307595,4537.948607,4639.999887,4295.38451,3944.102468,4290.769126,4061.025542,4249.743486,4336.41015,4030.256312,4302.051177,4785.128088,4363.589637,4315.89733
1.46875,3975.384518,4536.410145,4647.179374,4294.87169,3953.846057,4287.692203,4052.307593,4252.307588,4339.999894,4040.512722,4308.717843,4786.153729,4369.230662,4322.051176
1.4765625,3976.92298,4533.846043,4649.230656,4294.358869,3951.794775,4290.256305,4050.256311,4258.974255,4343.076817,4042.564004,4308.717843,4777.948601,4366.66656,4318.974253
1.484375,3976.410159,4538.974248,4646.666553,4291.281946,3949.743493,4294.358869,4058.461439,4264.61528,4341.538355,4039.999901,4307.179382,4766.15373,4363.076816,4316.410151
1.4921875,3973.333236,4543.589632,4647.179374,4290.769126,3956.41016,4296.410151,4061.538362,4258.974255,4339.487073,4038.97426,4310.256305,4760.512704,4363.589637,4319.487074
1.5,3971.281954,4542.051171,4644.102451,4287.692203,3963.589647,4292.820408,4056.410157,4251.281947,4336.922971,4038.97426,4309.230664,4754.871679,4364.615278,4320.512715
1.5078125,3971.794775,4543.589632,4639.999887,4282.051177,3969.743493,4288.717844,4061.025542,4255.897332,4335.384509,4039.487081,4307.692202,4746.666551,4364.615278,4316.922971
1.515625,3976.92298,4545.128094,4643.07681,4284.61528,3972.820416,4292.307587,4072.307593,4264.10246,4337.948612,4042.564004,4312.820407,4742.051166,4367.17938,4318.974253
1.5234375,3979.999903,4536.922966,4650.769117,4287.692203,3967.17939,4290.256305,4068.717849,4262.051178,4338.974253,4043.076824,4316.410151,4738.974243,4367.17938,4325.64092
1.53125,3981.538364,4530.256299,4652.820399,4284.61528,3969.230672,4283.589639,4062.564003,4261.538357,4336.922971,4041.025542,4315.89733,4731.281936,4366.153739,4326.666561
1.5390625,3987.17939,4528.717838,4657.948604,4283.076818,3977.948621,4289.230664,4067.179388,4264.61528,4335.89733,4043.076824,4315.89733,4724.615269,4366.66656,4326.666561
1.546875,3987.17939,4524.102453,4660.512707,4285.1281,3978.461441,4304.615279,4073.846054,4270.769126,4338.974253,4043.076824,4313.846048,4715.3845,4364.102457,4329.230663
1.5546875,3981.538364,4518.461428,4662.051168,4283.076818,3973.846057,4310.769125,4069.23067,4267.692203,4338.974253,4036.922978,4309.230664,4704.102449,4359.999893,4325.64092
1.5625,3979.999903,4517.435787,4662.563989,4277.948613,3972.820416,4307.179382,4054.358875,4255.384511,4336.41015,4035.897337,4308.205023,4689.743475,4363.076816,4316.922971
1.5703125,3982.051185,4518.461428,4662.051168,4278.461434,3964.615288,4301.025536,4044.102465,4253.333229,4336.41015,4036.922978,4304.615279,4675.384501,4364.615278,4305.1281
1.578125,3977.4358,4522.051171,4657.435784,4285.1281,3956.92298,4295.897331,4045.128106,4252.307588,4335.384509,4030.256312,4296.410151,4663.076809,4359.487073,4293.333228
1.5859375,3975.897339,4525.640915,4651.794758,4292.307587,3954.871698,4292.820408,4040.512722,4231.794768,4330.769125,4020.512722,4290.256305,4654.871681,4356.41015,4286.153741
1.59375,3983.076826,4528.205017,4652.307579,4301.025536,3951.281955,4292.307587,4034.358876,4224.102461,4329.743484,4022.564004,4294.87169,4649.743476,4363.589637,4288.205023
1.6015625,3988.205031,4530.256299,4653.84604,4304.102459,3947.179391,4291.794767,4041.025542,4237.948614,4331.794766,4026.153748,4298.461433,4641.538348,4367.17938,4291.794767
1.609375,3977.4358,4528.205017,4644.615271,4295.38451,3942.564006,4286.153741,4039.487081,4233.84605,4330.769125,4017.94862,4287.692203,4626.666554,4362.051175,4287.179382
1.6171875,3968.205031,4526.666556,4634.871682,4289.230664,3935.89734,4282.051177,4031.794773,4229.230666,4331.794766,4013.333235,4277.948613,4611.281939,4359.999893,4283.076818
1.625,3969.230672,4524.102453,4634.871682,4288.717844,3931.281955,4283.589639,4040.512722,4237.435794,4334.871689,4016.922979,4280.512716,4603.076811,4361.538355,4285.640921
1.6328125,3974.871698,4517.435787,4637.435784,4288.717844,3932.307596,4283.589639,4046.666568,4232.307589,4331.794766,4015.384517,4288.205023,4599.999888,4365.128098,4295.897331
1.640625,3976.92298,4515.897325,4642.563989,4291.281946,3934.358878,4277.948613,4036.922978,4221.025538,4328.205022,4013.333235,4293.333228,4596.922965,4374.358867,4309.230664
1.6484375,3978.974262,4522.563992,4649.230656,4296.922972,3935.384519,4273.846049,4033.846055,4227.179384,4332.307586,4023.589645,4298.974254,4592.820401,4387.17938,4323.076817
1.65625,3986.153749,4526.666556,4659.487066,4303.076818,3936.41016,4278.974254,4041.538363,4239.999896,4339.999894,4037.948619,4309.743484,4592.30758,4396.922969,4334.871689
1.6640625,3992.820415,4526.666556,4667.179373,4310.769125,3941.538365,4287.179382,4046.153747,4244.615281,4342.563996,4044.102465,4317.435792,4588.717837,4406.666559,4341.538355
1.671875,3990.256313,4526.666556,4665.640912,4312.820407,3949.743493,4285.640921,4043.076824,4242.563999,4340.512714,4043.589645,4314.871689,4578.974247,4411.794764,4345.128099
1.6796875,3986.666569,4523.589633,4655.384502,4307.179382,3954.871698,4283.589639,4044.615286,4247.692204,4341.538355,4044.102465,4310.769125,4568.205016,4410.256302,4350.769124
1.6875,3990.769133,4521.02553,4653.84604,4307.179382,3951.281955,4286.666562,4047.692209,4252.820409,4342.051176,4045.128106,4310.256305,4563.589632,4409.230661,4357.435791
1.6953125,3989.230672,4518.974248,4655.384502,4313.846048,3948.717852,4287.692203,4048.71785,4246.666563,4339.487073,4042.564004,4308.205023,4553.333222,4409.230661,4356.92297
1.703125,3980.512723,4517.948607,4650.769117,4316.922971,3950.256314,4286.153741,4046.666568,4240.512717,4337.948612,4036.410158,4301.538356,4537.435786,4406.153738,4349.230663
1.7109375,3976.92298,4520.51271,4644.102451,4321.025535,3951.281955,4287.692203,4046.666568,4238.974255,4338.461432,4034.358876,4298.461433,4523.589633,4408.717841,4343.076817
1.71875,3977.4358,4522.563992,4643.58963,4325.64092,3950.769134,4291.794767,4049.23067,4238.461435,4337.435791,4032.820414,4297.948613,4517.435787,4413.846046,4337.948612
1.7265625,3971.794775,4519.999889,4643.07681,4321.538356,3945.128109,4294.87169,4056.922978,4246.153742,4335.384509,4029.743491,4295.38451,4508.717838,4412.820405,4331.281945
1.734375,3968.717852,4520.51271,4643.07681,4311.794766,3937.948622,4296.922972,4064.615285,4255.897332,4335.89733,4033.333235,4296.922972,4500.51271,4416.410148,4332.307586
1.7421875,3969.743493,4522.563992,4644.102451,4306.153741,3942.051186,4299.487074,4063.076824,4252.820409,4334.871689,4036.410158,4299.999895,4495.897326,4425.128097,4334.871689
1.75,3967.17939,4517.948607,4638.974246,4303.076818,3948.717852,4298.974254,4055.384516,4245.640922,4333.333227,4029.743491,4296.410151,4486.153736,4424.615276,4328.717843
1.7578125,3964.102467,4518.974248,4637.435784,4298.461433,3939.999904,4286.666562,4044.615286,4244.10246,4332.307586,4024.615286,4291.281946,4474.358865,4421.538353,4322.051176
1.765625,3969.230672,4529.743479,4644.102451,4300.512715,3934.358878,4276.922972,4039.487081,4245.128101,4334.358868,4030.769132,4297.948613,4468.717839,4427.692199,4321.025535
1.7734375,3975.384518,4533.846043,4650.769117,4309.230664,3945.128109,4281.025536,4037.435799,4242.563999,4337.948612,4033.846055,4305.64092,4468.205019,4431.794763,4315.89733
1.78125,3976.92298,4531.28194,4648.717835,4315.89733,3952.820416,4286.666562,4034.871696,4238.461435,4341.538355,4033.846055,4303.589638,4459.48707,4429.230661,4308.717843
1.7890625,3974.358877,4525.640915,4645.640912,4315.38451,3947.692211,4286.153741,4038.46144,4241.538358,4341.025535,4035.384517,4297.435792,4445.128096,4427.692199,4306.666561
1.796875,3969.230672,4522.051171,4640.512707,4314.871689,3951.281955,4287.179382,4045.640927,4244.615281,4337.948612,4033.333235,4295.38451,4428.71784,4429.230661,4304.102459
1.8046875,3966.153749,4524.102453,4636.922964,4313.333228,3963.076826,4285.640921,4039.487081,4233.33323,4336.41015,4027.179389,4293.846049,4420.512712,4428.20502,4299.487074
1.8125,3961.025544,4523.589633,4632.8204,4308.717843,3962.051185,4282.563998,4031.794773,4219.999897,4332.820407,4019.999902,4283.589639,4410.769123,4423.076815,4292.820408
1.8203125,3954.871698,4516.410146,4627.179374,4304.102459,3956.41016,4283.589639,4039.487081,4218.461435,4327.692202,4009.743492,4268.717844,4392.307585,4412.820405,4281.025536
1.828125,3950.769134,4513.846043,4618.974246,4302.563997,3970.769134,4288.205023,4050.256311,4228.205025,4329.743484,4005.640928,4267.692203,4374.871688,4408.717841,4270.256306
1.8359375,3953.333237,4519.487069,4616.922964,4298.974254,3987.17939,4288.205023,4051.794773,4236.922973,4333.333227,4009.743492,4274.35887,4367.692201,4415.897328,4263.589639
1.84375,3955.897339,4524.102453,4622.051169,4293.846049,3983.589646,4288.205023,4049.23067,4233.33323,4331.281945,4012.820415,4275.384511,4360.512714,4424.615276,4261.025537
1.8515625,3964.615288,4527.179376,4632.8204,4296.410151,3972.307595,4291.794767,4048.71785,4225.640922,4331.281945,4015.384517,4279.487075,4355.384509,4424.615276,4270.769126
1.859375,3976.92298,4535.384504,4640.512707,4305.64092,3968.717852,4289.743485,4052.820414,4229.230666,4335.89733,4024.102466,4290.256305,4358.461432,4424.102456,4284.61528
1.8671875,3981.538364,4543.589632,4645.128092,4309.743484,3970.256313,4281.538357,4051.794773,4237.948614,4336.41015,4033.846055,4296.922972,4364.102457,4429.743481,4291.794767
1.875,3983.076826,4547.692196,4654.871681,4307.692202,3967.17939,4274.87169,4039.999901,4234.358871,4336.922971,4039.487081,4302.563997,4366.66656,4433.846045,4301.538356
1.8828125,3986.666569,4545.640914,4659.487066,4308.717843,3963.589647,4273.333229,4028.71785,4227.692204,4341.025535,4042.564004,4307.179382,4362.563996,4433.846045,4308.717843
1.890625,3983.076826,4539.487068,4651.281938,4307.179382,3968.717852,4271.794767,4023.076825,4230.769127,4341.025535,4040.512722,4301.025536,4348.205022,4432.307584,4300.512715
1.8984375,3971.281954,4534.358863,4636.410143,4296.922972,3973.333236,4269.743485,4023.589645,4232.820409,4337.948612,4032.307594,4288.205023,4328.717843,4426.153738,4291.794767
1.90625,3965.128108,4530.76912,4634.358861,4291.794767,3964.615288,4270.256306,4029.743491,4225.128102,4334.871689,4021.538363,4280.512716,4315.89733,4416.410148,4292.307587
1.9140625,3963.076826,4522.563992,4635.384502,4297.435792,3957.948621,4269.230665,4032.820414,4219.999897,4333.333227,4015.897338,4277.435793,4307.692202,4411.281943,4288.205023
1.921875,3957.948621,4511.794761,4630.256297,4296.922972,3958.974262,4261.025537,4027.692209,4216.922974,4330.256304,4010.769133,4272.820408,4299.999895,4409.230661,4278.974254
1.9296875,3955.897339,4513.333223,4624.615272,4289.230664,3956.41016,4255.897332,4032.820414,4212.82041,4329.230663,4007.179389,4268.717844,4289.743485,4413.333225,4281.025536
1.9375,3957.948621,4519.487069,4627.179374,4287.179382,3951.281955,4260.512716,4042.051183,4211.281948,4329.743484,4007.179389,4269.743485,4282.051177,4419.999892,4285.640921
1.9453125,3957.435801,4518.461428,4626.666554,4292.820408,3959.487083,4264.10246,4039.487081,4214.871692,4331.281945,4009.230671,4272.820408,4273.333229,4419.999892,4281.025536
1.953125,3955.897339,4518.461428,4624.615272,4295.897331,3976.92298,4259.487075,4031.794773,4212.307589,4330.256304,4009.743492,4273.333229,4267.179383,4415.897328,4275.384511
1.9609375,3957.948621,4531.794761,4627.179374,4296.922972,3983.076826,4259.487075,4032.307594,4207.179384,4330.769125,4013.333235,4278.461434,4264.10246,4421.025533,4282.051177
1.96875,3963.589647,4549.230658,4637.948605,4305.64092,3973.846057,4268.717844,4031.794773,4212.307589,4335.384509,4026.153748,4290.769126,4267.179383,4429.743481,4293.846049
1.9765625,3967.692211,4554.871683,4649.743476,4317.948612,3969.230672,4271.281947,4027.179389,4221.538358,4337.948612,4037.435799,4299.487074,4269.743485,4431.794763,4298.974254
1.984375,3973.333236,4552.307581,4655.384502,4319.487074,3966.66657,4262.051178,4025.640927,4225.128102,4336.41015,4041.538363,4299.487074,4268.717844,4432.307584,4300.512715
1.9921875,3972.820416,4548.205017,4651.794758,4308.717843,3954.358878,4255.897332,4023.076825,4224.102461,4338.461432,4042.564004,4298.974254,4262.051178,4432.307584,4302.051177
2,3967.692211,4538.461427,4646.666553,4301.025536,3950.256314,4260.512716,4018.974261,4225.128102,4341.538355,4038.97426,4296.922972,4251.281947,4428.20502,4297.435792
2.0078125,3967.692211,4530.256299,4644.615271,4297.435792,3949.743493,4266.666562,4024.102466,4230.769127,4340.512714,4031.794773,4291.794767,4242.563999,4425.640917,4287.179382
2.015625,3973.333236,4534.871684,4644.102451,4300.512715,3936.922981,4271.281947,4039.999901,4242.563999,4341.025535,4030.256312,4293.333228,4238.974255,4427.179379,4286.666562
2.0234375,3971.281954,4534.358863,4641.538348,4302.051177,3926.15375,4268.717844,4041.025542,4236.410153,4339.999894,4028.71785,4292.307587,4232.307589,4415.897328,4284.61528
2.03125,3962.051185,4517.435787,4629.230656,4293.333228,3931.281955,4262.563998,4025.640927,4210.769128,4334.871689,4015.897338,4277.435793,4215.384512,4394.358867,4271.281947
2.0390625,3961.025544,4507.692197,4623.589631,4286.153741,3938.974263,4262.051178,4019.487081,4198.461436,4333.333227,4008.20503,4270.769126,4207.692205,4392.820405,4268.205024
2.046875,3962.564006,4506.666556,4627.179374,4286.666562,3946.66657,4266.153742,4027.179389,4204.615282,4333.333227,4012.307594,4278.461434,4206.666564,4406.153738,4276.922972
2.0546875,3958.974262,4499.99989,4626.153733,4286.666562,3955.384519,4265.640921,4029.743491,4202.564,4328.717843,4010.769133,4276.922972,4202.564,4404.615277,4275.384511
2.0625,3957.435801,4497.435787,4621.538349,4287.179382,3960.512724,4264.10246,4032.307594,4200.512718,4328.205022,4008.717851,4273.846049,4197.435795,4399.999892,4272.820408
2.0703125,3962.051185,4501.538351,4625.640913,4289.743485,3968.205031,4263.589639,4035.897337,4206.666564,4330.256304,4011.794774,4276.922972,4196.922974,4404.102456,4280.512716
2.078125,3964.615288,4504.102454,4630.769118,4291.281946,3981.025544,4262.563998,4034.358876,4207.179384,4329.230663,4014.871697,4279.999895,4193.846051,4409.230661,4285.1281
2.0859375,3967.692211,4508.717838,4631.794759,4298.974254,3977.4358,4256.410152,4029.230671,4207.692205,4329.230663,4018.974261,4287.692203,4195.384513,4414.358866,4289.230664
2.09375,3969.743493,4515.897325,4633.846041,4304.615279,3972.307595,4246.666563,4021.025543,4209.743487,4331.281945,4024.102466,4296.410151,4197.948615,4419.999892,4297.435792
2.1015625,3969.743493,4516.922966,4634.358861,4302.051177,3988.717851,4237.948614,4014.358876,4205.128102,4332.820407,4024.615286,4296.410151,4194.871692,4415.897328,4296.922972
2.109375,3969.743493,4517.435787,4635.384502,4308.205023,4007.179389,4235.384512,4023.076825,4209.230666,4333.333227,4023.589645,4296.410151,4196.410154,4409.230661,4293.846049
2.1171875,3969.230672,4515.384505,4641.025528,4316.410151,4009.230671,4234.871691,4030.256312,4218.461435,4332.820407,4023.589645,4297.948613,4198.974256,4412.820405,4298.461433
2.125,3965.128108,4502.051172,4644.615271,4311.794766,4010.769133,4232.820409,4026.153748,4216.410153,4329.743484,4021.538363,4296.410151,4193.333231,4417.435789,4305.1281
2.1328125,3966.66657,4493.846044,4644.615271,4313.846048,4021.538363,4238.461435,4032.820414,4217.948615,4329.230663,4021.025543,4299.999895,4192.30759,4416.410148,4316.922971
2.140625,3970.256313,4497.435787,4647.179374,4323.076817,4031.281953,4250.256306,4041.538363,4222.563999,4332.307586,4020.512722,4299.487074,4198.461436,4415.897328,4324.615279
2.1484375,3967.692211,4493.333223,4645.640912,4315.38451,4030.769132,4253.84605,4037.948619,4212.82041,4332.307586,4014.358876,4290.256305,4194.871692,4413.846046,4318.974253
2.15625,3964.615288,4481.025531,4641.025528,4303.076818,4025.128107,4250.769127,4037.948619,4206.666564,4330.256304,4010.256312,4287.179382,4188.717846,4408.717841,4313.333228
2.1640625,3966.66657,4480.512711,4637.435784,4310.769125,4030.769132,4258.974255,4045.640927,4217.435794,4334.358868,4017.94862,4291.794767,4187.692205,4408.717841,4321.025535
2.171875,3967.17939,4479.99989,4637.948605,4315.89733,4037.948619,4268.717844,4050.769132,4225.640922,4338.974253,4024.615286,4286.153741,4180.512718,4408.717841,4321.025535
2.1796875,3964.615288,4468.717839,4635.384502,4310.769125,4029.743491,4267.179383,4056.922978,4230.769127,4337.948612,4024.615286,4281.538357,4172.30759,4407.6922,4310.256305
2.1875,3967.692211,4462.051173,4637.948605,4313.333228,4023.076825,4267.179383,4056.410157,4234.871691,4338.461432,4025.640927,4290.256305,4176.922975,4410.769123,4308.205023
2.1953125,3966.153749,4464.615275,4636.410143,4318.461433,4035.897337,4269.743485,4047.692209,4236.922973,4341.025535,4026.153748,4291.281946,4175.897334,4407.6922,4307.179382
2.203125,3957.948621,4464.102455,4625.640913,4311.281946,4044.615286,4266.153742,4039.487081,4234.358871,4336.922971,4017.435799,4280.512716,4165.128103,4398.974251,4295.38451
2.2109375,3951.794775,4457.435788,4615.897323,4307.179382,4041.538363,4264.10246,4038.97426,4225.640922,4333.846048,4010.256312,4274.87169,4150.769129,4398.974251,4283.589639
2.21875,3950.256314,4451.281942,4613.846041,4308.205023,4037.435799,4259.999896,4039.999901,4219.487076,4336.41015,4008.717851,4272.307588,4142.051181,4403.076815,4282.051177
2.2265625,3949.230673,4449.23066,4611.281939,4304.615279,4038.97426,4254.35887,4039.999901,4222.563999,4337.435791,4007.69221,4271.281947,4141.02554,4406.153738,4284.102459
2.234375,3949.230673,4444.102455,4610.256298,4307.179382,4046.153747,4257.435793,4045.128106,4228.717845,4337.435791,4012.820415,4274.87169,4144.102463,4411.281943,4281.025536
2.2421875,3949.230673,4435.897327,4614.358862,4313.333228,4047.692209,4262.563998,4048.205029,4231.794768,4339.487073,4018.974261,4278.461434,4143.589642,4412.820405,4274.87169
2.25,3950.256314,4437.435789,4619.487067,4310.256305,4038.46144,4258.461434,4043.589645,4229.743486,4338.974253,4018.974261,4281.025536,4143.589642,4413.846046,4274.35887
2.2578125,3951.794775,4447.179378,4623.589631,4306.666561,4041.025542,4253.333229,4042.051183,4223.58964,4335.89733,4015.384517,4285.640921,4151.28195,4419.999892,4281.025536
2.265625,3953.333237,4449.23066,4626.666554,4313.333228,4062.564003,4256.410152,4050.256311,4226.666563,4336.41015,4017.435799,4289.743485,4152.820411,4425.640917,4289.743485
2.2734375,3952.307596,4446.666558,4628.205015,4319.487074,4067.692208,4254.35887,4049.23067,4232.820409,4337.435791,4022.564004,4290.256305,4146.666565,4425.640917,4291.281946
2.28125,3949.230673,4451.281942,4623.07681,4314.871689,4055.897337,4248.717845,4035.384517,4231.794768,4337.435791,4021.025543,4286.153741,4139.487078,4424.102456,4285.1281
2.2890625,3946.66657,4454.871686,4619.487067,4309.743484,4053.333234,4245.640922,4027.179389,4228.205025,4337.435791,4017.435799,4278.974254,4138.461437,4418.974251,4282.563998
2.296875,3948.717852,4448.71784,4615.897323,4305.64092,4059.48708,4246.666563,4030.256312,4227.692204,4336.41015,4016.922979,4273.333229,4134.871694,4415.897328,4288.717844
2.3046875,3949.230673,4438.97425,4614.871682,4298.461433,4057.435798,4253.84605,4037.435799,4226.666563,4335.384509,4015.384517,4269.743485,4130.256309,4414.358866,4290.769126
2.3125,3947.692211,4440.512712,4615.384503,4293.846049,4049.23067,4266.153742,4045.128106,4234.871691,4338.974253,4015.897338,4273.333229,4131.28195,4414.871687,4286.153741
2.3203125,3951.281955,4446.153737,4618.974246,4295.38451,4048.71785,4276.410152,4048.71785,4238.974255,4339.487073,4017.435799,4274.35887,4135.897335,4414.358866,4279.487075
2.328125,3951.281955,4444.102455,4612.8204,4297.948613,4062.564003,4278.461434,4042.051183,4225.128102,4336.41015,4014.358876,4266.153742,4132.820412,4411.794764,4270.256306
2.3359375,3947.692211,4441.538353,4605.128093,4297.948613,4073.333234,4273.333229,4029.743491,4208.205025,4334.871689,4012.307594,4259.999896,4127.692207,4409.230661,4263.589639
2.34375,3947.692211,4446.666558,4607.179375,4301.025536,4075.897336,4269.743485,4029.230671,4210.769128,4336.922971,4017.435799,4269.230665,4131.28195,4413.333225,4266.666562
2.3515625,3953.333237,4453.333224,4614.358862,4304.102459,4081.538362,4272.820408,4038.97426,4225.128102,4338.974253,4021.538363,4283.076818,4141.02554,4421.025533,4273.846049
2.359375,3954.871698,4452.307583,4621.025528,4305.1281,4085.640926,4276.922972,4044.615286,4233.84605,4339.999894,4025.640927,4292.307587,4147.179386,4425.640917,4276.410152
2.3671875,3959.999903,4455.897327,4631.281938,4308.717843,4088.205028,4276.922972,4044.615286,4241.538358,4345.128099,4037.435799,4297.948613,4152.820411,4429.743481,4281.025536
2.375,3966.66657,4463.076814,4641.025528,4309.743484,4092.820413,4269.743485,4041.538363,4245.640922,4346.66656,4042.051183,4297.948613,4157.948616,4432.307584,4282.563998
2.3828125,3966.153749,4459.999891,4635.384502,4299.999895,4089.230669,4258.974255,4039.487081,4243.58964,4341.025535,4031.281953,4292.820408,4152.307591,4426.666558,4273.846049
2.390625,3958.461442,4449.743481,4623.589631,4284.61528,4074.871695,4258.974255,4045.128106,4243.076819,4339.487073,4021.025543,4287.179382,4141.53836,4416.410148,4264.61528
2.3984375,3952.820416,4440.512712,4619.999887,4283.076818,4076.922977,4266.666562,4048.205029,4250.256306,4343.076817,4027.692209,4285.1281,4137.948617,4415.384507,4266.666562
2.40625,3951.794775,4431.794763,4619.487067,4287.179382,4091.794772,4267.692203,4043.076824,4248.205024,4340.512714,4029.230671,4281.538357,4141.02554,4418.46143,4271.794767
2.4140625,3949.743493,4422.563994,4614.358862,4286.153741,4096.922977,4269.743485,4045.128106,4237.435794,4336.922971,4017.94862,4274.87169,4138.974258,4413.846046,4274.35887
2.421875,3946.66657,4423.076815,4614.871682,4289.230664,4090.769131,4275.897331,4049.743491,4232.820409,4338.461432,4013.846056,4271.281947,4135.384514,4407.6922,4274.35887
2.4296875,3944.615288,4429.743481,4615.384503,4297.948613,4087.692208,4278.461434,4045.128106,4227.692204,4338.461432,4015.897338,4269.230665,4133.333232,4410.256302,4272.820408
2.4375,3946.66657,4433.333225,4615.384503,4296.922972,4089.230669,4277.435793,4037.435799,4219.487076,4336.41015,4013.333235,4268.717844,4136.410155,4412.307584,4274.87169
2.4453125,3949.230673,4431.794763,4614.358862,4289.230664,4092.820413,4278.461434,4030.769132,4215.384512,4335.89733,4012.820415,4269.230665,4135.384514,4409.230661,4278.974254
2.453125,3949.230673,4424.615276,4616.410144,4288.717844,4085.640926,4277.948613,4024.102466,4206.153743,4333.333227,4012.820415,4268.205024,4135.384514,4408.717841,4279.487075
2.4609375,3949.230673,4421.025533,4619.487067,4289.743485,4075.897336,4272.307588,4027.179389,4204.102461,4334.871689,4010.256312,4269.743485,4135.897335,4413.333225,4279.487075
2.46875,3950.256314,4420.512712,4621.025528,4284.61528,4079.48708,4261.025537,4027.692209,4215.897333,4336.922971,4006.153748,4270.256306,4133.846053,4412.307584,4279.999895
2.4765625,3945.640929,4418.46143,4615.384503,4282.563998,4093.333233,4251.794768,4020.512722,4218.974256,4334.871689,4004.102466,4265.640921,4130.256309,4407.6922,4278.461434
2.484375,3942.051186,4414.871687,4608.205016,4285.640921,4096.410156,4249.743486,4017.94862,4207.692205,4332.307586,4002.051184,4259.999896,4128.717848,4408.717841,4273.846049
2.4921875,3938.974263,4412.307584,4605.128093,4285.640921,4088.717849,4250.256306,4022.051184,4198.461436,4331.794766,3999.487082,4257.948614,4125.640925,4408.20502,4268.205024
2.5,3934.871699,4409.743482,4602.56399,4286.666562,4085.640926,4250.769127,4022.051184,4193.846051,4329.743484,3996.922979,4253.84605,4118.461438,4403.076815,4265.640921
2.5078125,3931.281955,4402.563995,4598.461426,4289.230664,4087.692208,4250.769127,4015.384517,4190.256308,4329.743484,3995.897338,4247.692204,4115.384515,4399.999892,4262.563998
2.515625,3930.769135,4395.384508,4592.30758,4288.205023,4091.281951,4249.230665,4019.487081,4192.30759,4332.820407,3994.358877,4246.153742,4116.922976,4398.461431,4255.897332
2.5234375,3929.230673,4395.384508,4590.256298,4286.153741,4093.333233,4250.769127,4024.102466,4184.615282,4330.769125,3990.769133,4247.692204,4119.487079,4396.922969,4253.333229
2.53125,3932.307596,4405.640918,4592.820401,4286.666562,4086.666567,4254.871691,4017.435799,4175.384513,4330.256304,3997.94862,4255.384511,4121.538361,4405.640918,4258.974255
2.5390625,3938.461442,4407.6922,4595.384503,4287.692203,4072.820413,4254.871691,4011.794774,4175.384513,4332.820407,4005.640928,4261.025537,4126.666566,4411.794764,4262.051178
2.546875,3937.948622,4390.256303,4593.846042,4285.640921,4069.74349,4254.35887,4014.358876,4173.846052,4333.846048,4005.640928,4263.589639,4131.28195,4408.20502,4261.025537
2.5546875,3932.820417,4373.333226,4593.333221,4281.025536,4072.820413,4253.333229,4014.358876,4169.230667,4332.820407,4004.102466,4265.128101,4134.871694,4408.20502,4262.051178
2.5625,3931.794776,4372.307585,4590.769119,4281.025536,4068.205029,4250.769127,4014.871697,4180.512718,4333.333227,4008.20503,4269.230665,4138.461437,4413.846046,4266.666562
2.5703125,3936.41016,4373.333226,4591.79476,4281.025536,4058.461439,4245.640922,4019.487081,4201.538359,4334.358868,4012.307594,4271.281947,4143.589642,4411.794764,4264.61528
2.578125,3939.487083,4369.743483,4595.384503,4276.410152,4056.410157,4243.076819,4027.179389,4207.692205,4336.41015,4014.358876,4269.743485,4143.589642,4406.666559,4257.948614
2.5859375,3937.435801,4369.230662,4599.999888,4270.256306,4061.538362,4244.615281,4033.846055,4207.179384,4338.974253,4016.410158,4272.820408,4143.589642,4409.230661,4258.974255
2.59375,3929.743494,4364.615278,4595.897324,4266.153742,4068.717849,4252.820409,4034.871696,4213.846051,4339.999894,4018.46144,4273.846049,4141.02554,4412.820405,4259.999896
2.6015625,3925.64093,4350.769124,4590.769119,4261.538357,4065.640926,4258.461434,4031.794773,4215.384512,4340.512714,4017.435799,4269.230665,4137.435796,4412.307584,4255.384511
2.609375,3928.205032,4350.769124,4593.333221,4263.076819,4053.846055,4256.922973,4032.820414,4214.871692,4344.102458,4018.46144,4268.205024,4135.897335,4413.333225,4256.922973
2.6171875,3931.794776,4364.615278,4593.333221,4266.666562,4052.307593,4262.563998,4035.897337,4216.922974,4342.563996,4018.46144,4269.230665,4135.384514,4411.794764,4261.025537
2.625,3925.64093,4370.769124,4586.153734,4259.487075,4061.538362,4266.153742,4030.769132,4206.153743,4334.358868,4009.743492,4262.563998,4133.333232,4407.6922,4253.84605
2.6328125,3921.025545,4371.281944,4584.102452,4255.384511,4067.179388,4263.589639,4019.999902,4182.05118,4329.743484,4000.512723,4255.384511,4131.28195,4407.6922,4244.615281
2.640625,3927.179391,4381.025534,4593.846042,4264.10246,4062.051183,4261.538357,4013.333235,4167.179385,4331.794766,4003.076825,4260.512716,4133.846053,4413.846046,4245.128101
2.6484375,3935.89734,4390.256303,4603.589631,4271.794767,4058.461439,4260.512716,4012.307594,4164.615283,4329.743484,4010.769133,4272.307588,4143.076822,4421.538353,4251.281947
2.65625,3941.025545,4392.307585,4610.769118,4273.846049,4058.97426,4253.84605,4011.281953,4163.589642,4326.666561,4012.307594,4281.025536,4155.384514,4425.128097,4255.384511
2.6640625,3943.076827,4394.871687,4608.717836,4275.897331,4059.48708,4246.153742,4010.769133,4173.333231,4332.307586,4013.333235,4284.102459,4159.487078,4424.615276,4252.307588
2.671875,3939.999904,4393.333226,4604.615272,4275.384511,4057.435798,4246.666563,4015.384517,4187.692205,4337.435791,4015.897338,4282.563998,4161.53836,4424.615276,4249.230665
2.6796875,3932.307596,4383.589636,4598.974247,4270.769126,4053.846055,4249.743486,4024.615286,4192.30759,4333.333227,4016.922979,4276.410152,4157.948616,4419.487071,4243.076819
2.6875,3921.025545,4369.743483,4584.102452,4262.051178,4050.256311,4249.230665,4028.20503,4190.769128,4326.15374,4003.076825,4261.538357,4139.999899,4405.128097,4222.051179
2.6953125,3912.307597,4364.102457,4572.307581,4258.461434,4046.666568,4251.281947,4028.20503,4194.871692,4329.230663,3992.820415,4252.307588,4123.076822,4399.487072,4205.128102
2.703125,3913.846058,4369.743483,4579.487068,4268.205024,4045.128106,4258.974255,4029.743491,4203.07682,4338.461432,4005.128107,4259.487075,4126.666566,4407.179379,4206.666564
2.7109375,3914.358879,4374.358867,4581.025529,4273.333229,4053.333234,4265.128101,4034.871696,4206.666564,4339.999894,4015.897338,4266.153742,4130.76913,4411.794764,4208.717846
2.71875,3909.743494,4374.358867,4573.846042,4259.487075,4063.076824,4263.076819,4033.333235,4201.538359,4335.89733,4005.640928,4259.999896,4125.128104,4406.153738,4199.487077
2.7265625,3908.205033,4379.999893,4575.897324,4255.897332,4064.615285,4264.61528,4026.153748,4195.384513,4335.89733,4001.025543,4257.435793,4124.102463,4405.128097,4194.358872
2.734375,3910.256315,4391.794764,4582.563991,4268.717844,4056.922978,4266.666562,4022.051184,4191.794769,4335.89733,4005.640928,4261.025537,4127.179386,4409.743482,4196.922974
2.7421875,3910.769135,4401.538354,4584.615273,4275.897331,4053.333234,4263.589639,4021.025543,4185.128103,4331.281945,4002.564005,4258.974255,4127.692207,4410.769123,4201.025538
2.75,3918.974263,4407.6922,4593.846042,4275.897331,4056.410157,4257.948614,4021.025543,4186.153744,4329.230663,4001.538364,4264.10246,4136.410155,4411.794764,4213.33323
2.7578125,3926.666571,4403.076815,4605.128093,4278.974254,4058.97426,4251.794768,4018.46144,4195.384513,4330.769125,4005.640928,4273.846049,4148.717847,4417.435789,4229.230666
2.765625,3925.64093,4395.384508,4604.102452,4284.102459,4056.922978,4246.666563,4017.94862,4191.281949,4332.307586,4008.717851,4275.384511,4150.256309,4419.999892,4233.84605
2.7734375,3923.589648,4396.922969,4602.56399,4284.102459,4049.23067,4238.974255,4013.846056,4179.999898,4332.820407,4010.769133,4276.410152,4153.333232,4417.435789,4234.358871
2.78125,3922.051186,4394.358867,4599.999888,4274.87169,4048.71785,4233.84605,4009.743492,4183.589641,4335.89733,4014.358876,4281.538357,4156.410155,4414.871687,4237.435794
2.7890625,3913.846058,4378.461431,4588.205016,4257.948614,4056.922978,4237.435794,4014.358876,4192.30759,4339.487073,4015.897338,4277.948613,4147.179386,4409.230661,4233.33323
2.796875,3901.538366,4365.128098,4569.230657,4250.769127,4065.640926,4247.179383,4029.743491,4199.487077,4338.461432,4012.307594,4267.179383,4134.871694,4406.153738,4229.230666
2.8046875,3898.974264,4363.076816,4565.640914,4253.333229,4069.74349,4250.256306,4038.46144,4202.051179,4334.358868,4004.102466,4259.999896,4135.897335,4407.6922,4231.794768
2.8125,3901.538366,4368.205021,4568.205016,4253.84605,4070.256311,4249.743486,4031.794773,4199.999897,4334.871689,4003.076825,4259.999896,4136.922976,4407.6922,4236.922973
2.8203125,3898.461443,4372.307585,4564.102452,4249.743486,4070.256311,4255.384511,4025.640927,4193.846051,4336.41015,4003.589646,4257.435793,4131.794771,4403.589636,4236.410153
2.828125,3888.205033,4370.769124,4550.769119,4246.153742,4070.769131,4262.051178,4035.384517,4192.30759,4333.846048,3995.384518,4248.205024,4122.564002,4396.410149,4232.820409
2.8359375,3883.589649,4374.358867,4547.692196,4248.205024,4066.153747,4259.487075,4040.512722,4194.871692,4332.307586,3992.307595,4247.179383,4123.589643,4396.922969,4235.384512
2.84375,3892.820418,4385.128098,4558.461427,4256.410152,4064.615285,4255.897332,4029.230671,4197.435795,4333.333227,4001.025543,4256.922973,4135.897335,4408.20502,4242.051178
2.8515625,3904.102469,4389.743482,4568.717837,4261.538357,4076.922977,4259.487075,4020.512722,4197.948615,4332.307586,4006.666569,4262.563998,4146.666565,4415.384507,4247.179383
2.859375,3906.666571,4393.333226,4572.820401,4258.974255,4087.692208,4263.589639,4024.102466,4197.435795,4332.307586,4005.640928,4267.692203,4150.769129,4414.358866,4252.307588
2.8671875,3911.281956,4399.487072,4581.53835,4256.410152,4083.589644,4257.435793,4020.512722,4194.358872,4330.769125,4006.666569,4275.384511,4156.410155,4416.922969,4261.538357
2.875,3918.461443,4397.43579,4587.692196,4257.435793,4078.974259,4248.205024,4010.769133,4187.179385,4326.666561,4009.230671,4278.974254,4159.999898,4419.487071,4266.666562
2.8828125,3915.89734,4395.384508,4587.179375,4258.461434,4081.538362,4242.563999,4012.307594,4184.615282,4327.179381,4012.820415,4279.487075,4159.487078,4421.025533,4266.666562
2.890625,3909.743494,4402.563995,4590.256298,4258.461434,4085.128105,4237.948614,4009.743492,4183.589641,4329.230663,4016.410158,4281.025536,4159.999898,4423.076815,4265.640921
2.8984375,3906.153751,4403.589636,4584.615273,4253.333229,4083.076823,4235.897332,4005.640928,4182.564,4331.794766,4014.871697,4278.974254,4158.461437,4418.46143,4264.10246
2.90625,3897.948623,4403.589636,4572.307581,4246.153742,4074.871695,4237.435794,4013.333235,4187.692205,4335.384509,4012.307594,4272.307588,4153.333232,4415.897328,4259.487075
2.9140625,3891.281956,4417.435789,4566.666555,4247.692204,4075.384516,4246.666563,4025.128107,4195.384513,4337.435791,4015.897338,4269.230665,4145.640924,4421.025533,4256.922973
2.921875,3888.717854,4425.640917,4565.128093,4246.153742,4083.589644,4257.948614,4026.666568,4194.871692,4334.871689,4013.333235,4264.61528,4138.974258,4415.384507,4256.410152
2.9296875,3883.076828,4417.94861,4554.358863,4232.820409,4088.205028,4265.640921,4030.256312,4193.333231,4336.922971,4007.179389,4255.897332,4132.820412,4406.153738,4255.897332
2.9375,3879.999905,4411.281943,4549.230658,4225.128102,4089.230669,4270.769126,4034.358876,4193.846051,4337.948612,4006.666569,4252.307588,4135.897335,4409.230661,4254.871691
2.9453125,3877.948623,4412.820405,4549.230658,4233.33323,4093.846054,4272.820408,4031.281953,4190.256308,4332.820407,4006.153748,4254.35887,4137.948617,4412.820405,4254.871691
2.953125,3871.794777,4414.358866,4545.640914,4235.897332,4096.922977,4267.179383,4028.20503,4180.512718,4329.743484,3997.4358,4251.281947,4134.358873,4406.153738,4252.307588
2.9609375,3868.205034,4411.281943,4540.512709,4227.692204,4097.948618,4262.051178,4023.076825,4174.871693,4329.230663,3990.256313,4245.128101,4129.743489,4402.051174,4248.717845
2.96875,3871.794777,4405.128097,4544.102453,4226.153743,4098.461438,4257.948614,4016.922979,4176.410154,4326.15374,3991.794774,4246.666563,4129.230668,4403.589636,4247.692204
2.9765625,3871.281957,4409.743482,4552.820401,4235.384512,4100.51272,4252.820409,4020.512722,4178.461436,4326.15374,3997.94862,4252.307588,4129.743489,4406.153738,4249.743486
2.984375,3874.8717,4424.102456,4561.53835,4243.076819,4108.205028,4253.84605,4024.102466,4178.461436,4331.281945,4004.615287,4259.999896,4135.897335,4411.794764,4251.794768
2.9921875,3882.564008,4433.333225,4568.717837,4246.666563,4123.589643,4258.461434,4023.589645,4182.05118,4332.307586,4007.69221,4266.153742,4135.384514,4417.94861,4249.743486
3,3887.179392,4434.871686,4573.333222,4251.794768,4135.897335,4262.563998,4026.153748,4187.692205,4330.256304,4008.717851,4268.205024,4117.435797,4421.538353,4246.153742
3.0078125,3884.102469,4441.025532,4571.281939,4248.717845,4136.922976,4265.128101,4028.71785,4192.30759,4333.846048,4014.358876,4270.256306,4119.487079,4422.563994,4246.153742
3.015625,3876.922982,4446.153737,4564.102452,4239.487076,4137.948617,4264.61528,4023.589645,4194.871692,4339.487073,4017.435799,4272.307588,4174.871693,4418.974251,4248.205024
3.0234375,3872.820418,4443.589635,4562.05117,4237.435794,4146.153745,4265.640921,4026.153748,4195.897333,4338.974253,4015.384517,4267.179383,4256.410152,4413.333225,4246.153742
3.03125,3876.410162,4444.615276,4564.102452,4243.58964,4154.871693,4275.384511,4042.564004,4201.025538,4336.922971,4012.820415,4264.61528,4321.025535,4412.307584,4247.179383
3.0390625,3877.435803,4448.205019,4568.717837,4244.615281,4157.435796,4280.512716,4048.71785,4205.128102,4336.41015,4011.794774,4268.205024,4371.794765,4414.358866,4253.84605
3.046875,3874.8717,4457.948609,4572.307581,4242.051178,4153.333232,4278.461434,4045.640927,4208.717846,4338.461432,4012.820415,4270.256306,4411.794764,4414.871687,4259.999896
3.0546875,3877.948623,4466.153737,4573.333222,4240.512717,4149.230668,4277.948613,4043.589645,4202.051179,4337.435791,4008.717851,4265.128101,4435.384507,4405.128097,4256.922973
3.0625,3876.410162,4456.410147,4565.640914,4236.922973,4156.410155,4278.974254,4038.97426,4190.769128,4332.307586,4001.538364,4259.999896,4443.589635,4390.769123,4250.256306
3.0703125,3871.281957,4439.999891,4563.076811,4229.743486,4163.076821,4272.820408,4031.794773,4188.717846,4330.769125,4001.538364,4264.10246,4454.871686,4386.666559,4248.717845
3.078125,3870.256316,4436.922968,4559.487068,4223.07682,4164.102462,4262.563998,4031.794773,4195.897333,4334.871689,4010.256312,4269.230665,4468.205019,4388.205021,4245.640922
3.0859375,3870.769136,4433.846045,4557.948606,4224.615281,4166.666565,4256.922973,4031.281953,4196.922974,4334.871689,4013.846056,4266.666562,4479.99989,4380.512713,4237.435794
3.09375,3873.846059,4422.563994,4566.153734,4230.769127,4168.717847,4258.974255,4028.20503,4194.871692,4334.871689,4012.307594,4265.640921,4495.897326,4374.358867,4235.384512
3.1015625,3879.487085,4418.46143,4573.846042,4231.281948,4169.743488,4262.563998,4030.256312,4198.974256,4336.922971,4012.820415,4270.256306,4513.333223,4376.410149,4239.487076
3.109375,3874.35888,4418.974251,4565.128093,4224.615281,4174.871693,4270.256306,4033.846055,4202.564,4335.384509,4010.256312,4267.179383,4518.974248,4373.333226,4233.33323
3.1171875,3869.743495,4424.102456,4559.999888,4222.051179,4175.897334,4285.640921,4034.871696,4204.615282,4335.89733,4013.333235,4262.563998,4522.563992,4371.794765,4226.153743
3.125,3869.743495,4429.230661,4566.153734,4224.615281,4174.358872,4294.358869,4035.384517,4204.615282,4338.974253,4022.564004,4267.179383,4528.717838,4373.846047,4226.153743
3.1328125,3863.589649,4424.102456,4562.563991,4224.102461,4179.999898,4290.769126,4033.846055,4194.871692,4332.820407,4013.333235,4264.10246,4527.179376,4366.153739,4224.102461
3.140625,3860.512726,4424.615276,4558.974247,4219.487076,4182.564,4284.102459,4027.692209,4184.102462,4325.64092,3995.384518,4256.922973,4524.615274,4358.461432,4225.128102
3.1484375,3869.230675,4435.897327,4565.640914,4218.461435,4179.999898,4283.589639,4026.153748,4185.640923,4328.717843,3994.871697,4261.025537,4531.794761,4361.538355,4234.871691
3.15625,3874.35888,4442.051173,4572.307581,4224.615281,4182.564,4284.102459,4029.230671,4186.153744,4329.230663,3997.94862,4265.640921,4542.051171,4362.051175,4243.58964
3.1640625,3877.948623,4445.640917,4575.897324,4226.666563,4188.205026,4280.512716,4030.256312,4183.076821,4327.692202,3996.922979,4267.179383,4546.666555,4359.999893,4252.820409
3.171875,3882.564008,4450.769122,4577.948606,4218.974256,4185.128103,4274.35887,4022.051184,4180.512718,4330.256304,3997.94862,4268.205024,4549.743478,4358.461432,4260.512716
3.1796875,3877.435803,4451.281942,4569.230657,4213.33323,4182.05118,4273.846049,4012.307594,4176.410154,4332.307586,4000.512723,4266.153742,4546.153735,4354.871688,4260.512716
3.1875,3877.435803,4449.23066,4566.666555,4219.999897,4179.999898,4277.948613,4012.820415,4173.333231,4335.384509,4007.179389,4269.230665,4549.743478,4354.871688,4265.640921
3.1953125,3886.153751,4445.128096,4574.871683,4231.281948,4179.487077,4283.589639,4022.051184,4185.128103,4339.487073,4020.512722,4283.076818,4559.999888,4359.487073,4276.410152
3.203125,3889.230674,4434.871686,4579.487068,4234.871691,4182.564,4283.076818,4025.640927,4194.358872,4339.487073,4023.076825,4289.743485,4565.128093,4358.974252,4277.948613
3.2109375,3887.692213,4429.230661,4576.922965,4235.384512,4184.615282,4281.538357,4025.128107,4192.30759,4339.487073,4022.564004,4287.692203,4566.153734,4356.41015,4278.461434
3.21875,3890.769136,4426.153738,4578.461427,4237.948614,4182.05118,4286.666562,4027.179389,4194.358872,4341.538355,4028.71785,4287.179382,4569.743478,4353.333227,4279.999895
3.2265625,3885.640931,4413.333225,4573.846042,4238.461435,4176.922975,4293.846049,4033.846055,4201.538359,4338.461432,4026.153748,4285.640921,4569.743478,4349.230663,4279.487075
3.234375,3876.410162,4399.487072,4565.640914,4234.871691,4170.256308,4296.410151,4039.487081,4205.128102,4335.89733,4013.846056,4281.025536,4566.666555,4347.179381,4282.563998
3.2421875,3872.307598,4391.281944,4560.512709,4229.743486,4165.640924,4295.897331,4035.897337,4199.999897,4334.871689,4004.102466,4273.846049,4564.615273,4341.538355,4284.102459
3.25,3867.179393,4383.076816,4555.897324,4226.666563,4157.435796,4288.717844,4022.051184,4188.717846,4328.717843,3995.384518,4262.563998,4559.487068,4331.281945,4276.410152
3.2578125,3864.61529,4382.563995,4556.410145,4226.153743,4142.564001,4283.589639,4017.94862,4182.564,4326.666561,3989.230672,4257.948614,4556.410145,4326.666561,4276.922972
3.265625,3870.769136,4388.717841,4562.05117,4227.179384,4140.512719,4290.256305,4026.153748,4181.025539,4329.743484,3990.769133,4264.61528,4561.53835,4330.256304,4290.256305
3.2734375,3877.435803,4387.17938,4567.179375,4230.769127,4152.820411,4293.846049,4022.564004,4170.256308,4329.230663,3993.846056,4271.794767,4566.666555,4333.846048,4298.974254
3.28125,3879.999905,4387.17938,4571.79476,4241.025537,4153.846052,4288.205023,4012.820415,4166.666565,4327.692202,4000.512723,4278.461434,4566.666555,4338.461432,4313.333228
3.2890625,3884.61529,4395.897328,4579.999888,4243.58964,4144.102463,4285.640921,4015.384517,4181.538359,4330.769125,4009.743492,4284.61528,4569.743478,4341.025535,4328.717843
3.296875,3888.205033,4401.538354,4578.461427,4235.384512,4144.102463,4288.205023,4022.051184,4187.692205,4332.820407,4012.307594,4286.153741,4569.743478,4342.563996,4327.179381
3.3046875,3884.61529,4401.025533,4573.846042,4234.358871,4156.410155,4289.743485,4019.999902,4181.025539,4332.307586,4009.743492,4284.61528,4565.640914,4340.512714,4317.435792
3.3125,3880.512726,4405.128097,4572.307581,4238.974255,4166.666565,4290.256305,4019.999902,4184.615282,4334.358868,4010.769133,4285.1281,4564.102452,4340.512714,4319.999894
3.3203125,3881.025546,4412.307584,4572.820401,4239.487076,4163.076821,4290.769126,4025.128107,4188.717846,4333.846048,4010.256312,4286.666562,4568.205016,4343.589637,4325.64092
3.328125,3879.487085,4412.307584,4567.692196,4235.384512,4164.102462,4294.358869,4029.743491,4191.281949,4335.384509,4012.820415,4287.179382,4566.666555,4342.051176,4320.512715
3.3359375,3874.8717,4402.051174,4558.974247,4227.179384,4177.948616,4294.87169,4029.230671,4194.358872,4336.41015,4008.717851,4282.563998,4558.461427,4332.820407,4309.743484
3.34375,3866.666572,4393.846046,4545.640914,4222.051179,4182.564,4298.461433,4024.102466,4187.179385,4332.820407,3991.794774,4275.897331,4547.692196,4327.692202,4301.538356
3.3515625,3861.025547,4393.333226,4539.487068,4226.153743,4180.512718,4310.256305,4027.692209,4183.589641,4331.794766,3988.205031,4273.846049,4545.128094,4326.666561,4298.974254
3.359375,3865.640931,4397.94861,4544.102453,4236.410153,4189.230667,4317.435792,4037.435799,4192.82041,4334.358868,4004.102466,4275.384511,4547.179376,4325.64092,4298.974254
3.3671875,3876.922982,4406.153738,4556.922965,4249.230665,4200.512718,4314.871689,4033.333235,4194.358872,4335.89733,4009.743492,4279.487075,4554.358863,4329.230663,4301.025536
3.375,3885.640931,4410.769123,4570.256298,4258.974255,4200.512718,4313.846048,4023.589645,4186.153744,4335.384509,4004.102466,4289.230664,4564.102452,4335.89733,4310.256305
3.3828125,3893.333238,4408.717841,4574.871683,4253.84605,4198.974256,4310.256305,4018.46144,4181.538359,4333.846048,4003.076825,4296.922972,4567.179375,4335.89733,4319.487074
3.390625,3901.025546,4412.307584,4577.435786,4245.640922,4196.922974,4304.102459,4012.307594,4177.948616,4331.794766,4007.179389,4299.487074,4569.743478,4337.948612,4323.589638
3.3984375,3906.666571,4421.538353,4587.692196,4254.35887,4186.666564,4305.1281,4012.307594,4179.999898,4333.333227,4014.358876,4306.153741,4576.410145,4347.179381,4330.769125
3.40625,3911.794776,4422.563994,4597.948606,4266.153742,4176.922975,4305.64092,4014.871697,4182.564,4333.846048,4014.358876,4310.256305,4576.410145,4348.205022,4338.974253
3.4140625,3911.794776,4418.974251,4591.79476,4263.589639,4173.846052,4301.538356,4008.20503,4171.79477,4330.256304,4004.102466,4304.102459,4564.102452,4337.435791,4340.512714
3.421875,3901.538366,4412.820405,4579.487068,4254.35887,4164.615283,4295.38451,3999.999902,4159.999898,4327.692202,3996.410159,4293.333228,4552.307581,4327.179381,4331.281945
3.4296875,3895.38452,4401.025533,4569.743478,4251.794768,4153.333232,4294.87169,4000.512723,4156.410155,4331.281945,3995.897338,4286.153741,4543.076812,4324.102458,4318.461433
3.4375,3897.435802,4393.846046,4566.666555,4253.333229,4153.333232,4302.563997,4002.051184,4156.922975,4336.41015,3998.461441,4287.692203,4543.076812,4326.15374,4317.435792
3.4453125,3891.281956,4392.307585,4561.025529,4254.871691,4156.922975,4309.230664,4008.717851,4168.205026,4335.89733,4000.512723,4292.820408,4545.128094,4327.179381,4319.999894
3.453125,3882.051187,4388.205021,4551.79476,4254.35887,4148.717847,4306.153741,4017.94862,4174.358872,4331.281945,3995.384518,4288.717844,4539.487068,4318.974253,4310.769125
3.4609375,3880.512726,4386.666559,4547.179376,4251.794768,4148.205027,4306.153741,4023.589645,4173.333231,4333.333227,3995.384518,4283.589639,4532.307581,4315.38451,4305.1281
3.46875,3885.640931,4392.820405,4555.384504,4251.794768,4156.922975,4314.358869,4025.640927,4182.564,4338.974253,4002.051184,4290.256305,4538.461427,4322.563997,4311.794766
3.4765625,3888.717854,4400.512713,4561.53835,4255.384511,4155.897334,4319.487074,4030.256312,4191.281949,4335.89733,3999.487082,4296.922972,4544.102453,4327.179381,4312.307587
3.484375,3897.435802,4405.640918,4566.666555,4260.512716,4154.871693,4321.538356,4034.871696,4182.564,4329.230663,3993.846056,4298.461433,4545.128094,4327.179381,4313.333228
3.4921875,3904.102469,4407.6922,4573.333222,4264.61528,4168.717847,4321.538356,4030.256312,4177.435795,4332.307586,3998.974261,4306.153741,4546.666555,4330.769125,4319.999894
3.5,3901.538366,4407.179379,4577.435786,4265.128101,4177.948616,4318.974253,4018.974261,4179.487077,4337.435791,4005.640928,4310.256305,4549.230658,4333.333227,4317.435792
3.5078125,3899.487084,4405.640918,4581.025529,4259.999896,4170.256308,4316.410151,4014.871697,4176.922975,4336.922971,4010.256312,4310.256305,4549.743478,4332.820407,4311.281946
3.515625,3907.692212,4407.6922,4584.102452,4255.897332,4169.743488,4315.89733,4018.974261,4184.615282,4339.487073,4017.94862,4317.435792,4551.28194,4335.384509,4317.435792
3.5234375,3914.871699,4411.794764,4587.179375,4256.922973,4175.384513,4314.358869,4021.025543,4196.410154,4343.076817,4022.051184,4322.051176,4554.871683,4336.922971,4324.102458
3.53125,3911.794776,4411.794764,4586.666555,4257.948614,4173.333231,4313.846048,4020.512722,4195.384513,4340.512714,4021.025543,4317.948612,4553.333222,4335.384509,4317.435792
3.5390625,3908.205033,4406.153738,4579.999888,4254.35887,4174.358872,4316.410151,4019.487081,4192.30759,4337.435791,4015.897338,4312.307587,4547.692196,4332.820407,4305.64092
3.546875,3910.256315,4404.102456,4574.358863,4254.871691,4175.384513,4323.076817,4030.769132,4204.615282,4339.487073,4012.307594,4312.820407,4544.615273,4332.307586,4301.538356
3.5546875,3910.256315,4411.794764,4579.999888,4257.948614,4167.692206,4330.769125,4046.153747,4217.435794,4339.487073,4016.410158,4318.461433,4545.640914,4334.358868,4304.615279
3.5625,3907.179392,4417.435789,4581.025529,4255.384511,4167.692206,4339.487073,4045.128106,4214.358871,4337.435791,4017.94862,4318.974253,4541.02553,4335.89733,4307.692202
3.5703125,3910.256315,4412.307584,4575.897324,4251.794768,4170.769129,4341.538355,4030.769132,4199.487077,4336.41015,4008.717851,4312.307587,4538.974248,4333.846048,4307.179382
3.578125,3915.89734,4411.281943,4573.846042,4253.333229,4159.487078,4337.435791,4024.102466,4188.205026,4333.333227,4002.564005,4310.256305,4539.487068,4332.307586,4307.179382
3.5859375,3917.948622,4415.897328,4577.948606,4257.948614,4144.615283,4337.948612,4028.20503,4186.153744,4329.230663,3999.999902,4312.307587,4539.487068,4331.794766,4309.743484
3.59375,3919.487084,4421.025533,4583.589632,4263.076819,4147.179386,4343.076817,4035.897337,4192.82041,4331.794766,4003.076825,4314.358869,4543.076812,4333.333227,4314.358869
3.6015625,3927.179391,4430.769122,4591.79476,4267.692203,4152.307591,4338.461432,4034.871696,4202.564,4337.948612,4012.307594,4322.563997,4553.846042,4337.948612,4321.025535
3.609375,3935.384519,4439.487071,4594.871683,4271.281947,4145.640924,4326.666561,4023.589645,4207.179384,4338.461432,4019.999902,4333.333227,4555.897324,4339.999894,4327.692202
3.6171875,3933.846058,4436.922968,4593.333221,4266.153742,4140.512719,4316.922971,4011.281953,4207.692205,4336.41015,4016.410158,4330.769125,4551.28194,4336.922971,4323.589638
3.625,3925.128109,4436.922968,4591.79476,4258.461434,4140.512719,4314.871689,4010.256312,4209.230666,4337.948612,4013.333235,4322.563997,4548.717837,4334.358868,4316.410151
3.6328125,3918.974263,4445.640917,4587.692196,4256.922973,4137.435796,4318.461433,4015.384517,4210.256307,4339.999894,4017.94862,4318.974253,4542.563991,4332.307586,4312.820407
3.640625,3910.769135,4442.051173,4575.384504,4252.307588,4136.922976,4322.563997,4014.871697,4201.538359,4337.435791,4012.307594,4311.281946,4529.743479,4323.076817,4302.051177
3.6484375,3900.512725,4429.230661,4560.512709,4239.999896,4144.615283,4323.076817,4011.794774,4186.666564,4332.820407,3995.384518,4293.333228,4514.871684,4312.820407,4289.743485
3.65625,3895.38452,4427.692199,4556.922965,4236.922973,4146.153745,4325.64092,4014.871697,4177.948616,4329.230663,3984.102467,4282.563998,4509.230659,4308.717843,4286.666562
3.6640625,3899.487084,4437.435789,4557.435786,4248.717845,4145.640924,4335.89733,4022.051184,4176.922975,4329.230663,3987.17939,4289.743485,4512.820402,4313.846048,4294.358869
3.671875,3907.179392,4440.512712,4562.563991,4256.922973,4151.79477,4344.102458,4027.179389,4178.974257,4332.307586,3991.794774,4301.538356,4522.563992,4320.512715,4310.256305
3.6796875,3912.820417,4434.871686,4568.717837,4256.922973,4156.922975,4352.307586,4033.333235,4187.692205,4336.922971,3995.384518,4307.179382,4530.256299,4324.102458,4322.563997
3.6875,3914.358879,4430.769122,4573.846042,4254.871691,4154.871693,4362.051175,4034.358876,4191.794769,4336.922971,4001.538364,4310.769125,4537.435786,4326.666561,4324.615279
3.6953125,3923.076827,4441.025532,4579.999888,4255.384511,4150.256309,4362.051175,4030.769132,4186.666564,4332.820407,4008.717851,4321.025535,4546.153735,4334.871689,4335.89733
3.703125,3937.435801,4460.512711,4595.384503,4260.512716,4147.692206,4350.256304,4026.666568,4184.102462,4327.692202,4008.717851,4331.794766,4557.435786,4341.025535,4351.794765
3.7109375,3926.666571,4466.666557,4597.948606,4266.153742,4150.256309,4341.538355,4023.076825,4190.769128,4329.230663,4006.153748,4331.281945,4554.871683,4337.435791,4350.256304
3.71875,3901.025546,4461.025532,4589.230657,4262.563998,4147.692206,4336.922971,4019.999902,4201.538359,4334.871689,4011.281953,4327.692202,4546.666555,4330.769125,4343.076817
3.7265625,3890.256315,4460.512711,4581.53835,4253.333229,4137.948617,4332.820407,4024.615286,4212.82041,4338.461432,4017.94862,4329.743484,4545.128094,4328.205022,4340.512714
3.734375,3891.281956,4459.48707,4574.871683,4252.307588,4132.820412,4337.948612,4032.820414,4216.410153,4338.461432,4013.846056,4327.692202,4541.53835,4327.692202,4332.820407
3.7421875,3889.743495,4454.358865,4567.179375,4256.922973,4132.820412,4346.15374,4032.307594,4211.794769,4337.435791,4008.20503,4320.512715,4528.205017,4324.102458,4324.102458
3.75,3894.358879,4451.281942,4565.640914,4258.974255,4133.333232,4344.102458,4027.692209,4209.230666,4336.922971,4010.256312,4318.461433,4521.538351,4324.615279,4323.076817
3.7578125,3903.076828,4447.179378,4565.128093,4257.435793,4134.871694,4338.974253,4027.692209,4205.128102,4336.41015,4009.230671,4318.461433,4520.51271,4328.717843,4324.102458
3.765625,3909.230674,4443.589635,4557.948606,4255.897332,4136.410155,4343.589637,4027.179389,4193.846051,4334.358868,4003.589646,4314.871689,4519.487069,4327.692202,4325.64092
3.7734375,3916.410161,4450.769122,4553.333222,4256.410152,4132.820412,4346.66656,4021.025543,4182.564,4334.358868,3999.487082,4313.333228,4520.51271,4326.666561,4330.769125
3.78125,3925.128109,4461.025532,4554.358863,4262.563998,4126.153745,4347.179381,4019.999902,4177.435795,4338.461432,4003.076825,4318.974253,4524.102453,4334.871689,4341.025535
3.7890625,3933.846058,4468.205019,4562.05117,4270.256306,4128.717848,4355.384509,4022.051184,4176.410154,4337.435791,4007.69221,4326.15374,4532.307581,4345.128099,4348.717842
3.796875,3938.974263,4475.384506,4568.717837,4271.281947,4133.846053,4361.538355,4019.999902,4186.153744,4334.358868,4007.69221,4328.717843,4536.922966,4347.692201,4350.769124
3.8046875,3944.102468,4483.076813,4575.897324,4268.717844,4129.230668,4355.384509,4021.025543,4198.974256,4335.89733,4005.640928,4327.692202,4537.435786,4345.640919,4349.230663
3.8125,3947.692211,4495.384505,4583.589632,4270.769126,4125.640925,4349.743483,4023.076825,4202.051179,4336.41015,4010.256312,4331.794766,4543.076812,4348.717842,4348.205022
3.8203125,3944.615288,4509.743479,4589.743478,4273.333229,4129.743489,4349.743483,4017.435799,4194.871692,4333.333227,4008.20503,4333.333227,4546.666555,4347.179381,4343.076817
3.828125,3933.333237,4511.794761,4585.128093,4267.692203,4130.256309,4347.179381,4014.871697,4190.256308,4330.256304,3997.4358,4325.128099,4536.922966,4338.974253,4333.333227
3.8359375,3925.128109,4505.128095,4575.384504,4261.538357,4125.128104,4342.051176,4019.487081,4188.205026,4329.743484,3994.358877,4313.333228,4529.230658,4333.846048,4322.051176
3.84375,3917.435802,4503.589633,4565.640914,4256.922973,4125.128104,4345.128099,4020.512722,4182.564,4329.743484,3991.794774,4304.102459,4521.538351,4330.769125,4309.230664
3.8515625,3908.205033,4504.615274,4556.410145,4253.333229,4117.948617,4349.230663,4012.307594,4170.256308,4327.179381,3979.999903,4293.846049,4508.717838,4322.051176,4300.512715
3.859375,3902.051187,4503.076813,4546.153735,4256.922973,4107.692207,4347.179381,4003.589646,4157.435796,4325.128099,3975.384518,4286.666562,4498.461428,4317.435792,4301.538356
3.8671875,3901.538366,4503.076813,4543.589632,4259.487075,4108.205028,4345.128099,3999.999902,4148.717847,4326.666561,3977.4358,4286.153741,4497.435787,4318.974253,4305.1281
3.875,3900.512725,4502.563992,4545.640914,4254.871691,4113.333233,4350.769124,4005.640928,4151.28195,4330.256304,3980.512723,4291.794767,4497.435787,4321.538356,4307.179382
3.8828125,3902.564007,4500.51271,4549.230658,4255.897332,4110.25631,4357.948611,4009.743492,4155.897334,4331.281945,3987.69221,4302.563997,4499.487069,4326.15374,4315.38451
3.890625,3906.153751,4496.410146,4551.79476,4258.974255,4105.128105,4357.948611,4004.615287,4147.179386,4327.692202,3989.743492,4306.153741,4500.51271,4330.769125,4323.589638
3.8984375,3909.230674,4493.333223,4553.333222,4255.384511,4106.666566,4354.358868,4002.051184,4142.564001,4327.179381,3986.666569,4303.076818,4499.487069,4329.743484,4325.128099
3.90625,3913.333238,4501.025531,4562.05117,4262.051178,4109.230669,4356.41015,4011.281953,4155.384514,4332.307586,3990.769133,4310.769125,4504.615274,4329.743484,4328.205022
3.9140625,3923.589648,4514.871684,4573.846042,4280.512716,4113.846053,4361.025534,4020.512722,4170.256308,4334.358868,4000.512723,4325.64092,4510.2563,4339.487073,4337.435791
3.921875,3934.358878,4517.948607,4585.640914,4287.692203,4127.179386,4358.974252,4021.025543,4179.999898,4333.333227,4008.717851,4331.794766,4517.435787,4351.281945,4343.076817
3.9296875,3937.435801,4506.153736,4591.79476,4289.230664,4143.076822,4356.41015,4021.538363,4191.281949,4336.922971,4015.384517,4331.794766,4521.02553,4358.461432,4342.051176
3.9375,3936.41016,4494.358864,4596.410144,4298.974254,4148.205027,4356.92297,4022.564004,4196.410154,4337.948612,4014.871697,4333.333227,4518.974248,4362.051175,4337.435791
3.9453125,3938.461442,4496.410146,4593.846042,4303.076818,4151.28195,4358.974252,4025.128107,4201.538359,4335.89733,4011.281953,4332.820407,4511.794761,4365.128098,4330.256304
3.953125,3935.384519,4495.897326,4583.589632,4291.281946,4162.05118,4361.025534,4024.615286,4202.564,4335.384509,4003.076825,4321.538356,4499.487069,4358.974252,4312.307587
3.9609375,3921.538366,4481.538352,4570.256298,4281.538357,4167.692206,4364.102457,4023.076825,4191.281949,4334.358868,3993.846056,4302.563997,4482.563993,4349.230663,4291.281946
3.96875,3913.846058,4469.23066,4563.589632,4280.512716,4163.076821,4367.17938,4023.076825,4181.538359,4329.743484,3988.205031,4292.820408,4474.358865,4347.179381,4284.61528
3.9765625,3914.871699,4467.692198,4562.563991,4275.384511,4158.461437,4370.769124,4026.666568,4179.487077,4328.205022,3986.666569,4294.87169,4474.358865,4348.717842,4291.794767
3.984375,3915.38452,4463.076814,4565.640914,4270.769126,4159.999898,4382.563995,4029.743491,4174.871693,4330.256304,3987.17939,4294.358869,4476.410147,4350.256304,4296.410151
3.9921875,3915.38452,4456.410147,4567.179375,4270.769126,4166.666565,4401.025533,4031.794773,4173.333231,4333.333227,3992.307595,4292.307587,4476.410147,4354.358868,4294.87169
4,3916.922981,4458.461429,4564.102452,4269.230665,4159.999898,4406.666559,4033.846055,4179.487077,4334.358868,3996.410159,4298.974254,4478.974249,4362.563996,4292.820408
4.0078125,3917.948622,4465.640916,4565.128093,4270.256306,4135.384514,4396.410149,4033.333235,4177.948616,4332.307586,3994.358877,4305.64092,4482.563993,4372.307585,4294.358869
4.015625,3919.999904,4466.153737,4567.692196,4270.769126,4117.435797,4393.333226,4028.20503,4165.640924,4328.205022,3989.743492,4303.076818,4485.640916,4378.461431,4296.410151
4.0234375,3923.076827,4468.717839,4572.820401,4267.179383,4104.615284,4394.358867,4019.487081,4156.922975,4327.179381,3990.769133,4304.102459,4488.717839,4382.051175,4297.435792
4.03125,3926.666571,4479.48707,4583.076811,4268.717844,4086.153746,4385.640918,4017.94862,4165.128103,4329.743484,3996.922979,4315.89733,4493.333223,4391.281944,4301.538356
4.0390625,3932.820417,4485.640916,4591.79476,4272.307588,4074.358875,4379.999893,4022.564004,4182.05118,4332.820407,3999.999902,4322.563997,4496.410146,4398.461431,4306.153741
4.046875,3937.948622,4485.640916,4588.717837,4275.897331,4070.769131,4384.615277,4022.051184,4191.281949,4336.41015,4003.589646,4318.974253,4491.281941,4397.43579,4309.743484
4.0546875,3936.41016,4484.615275,4587.692196,4279.999895,4058.97426,4387.17938,4017.435799,4187.692205,4337.435791,4004.102466,4314.358869,4488.205018,4395.384508,4312.820407
4.0625,3930.769135,4483.589634,4587.692196,4276.410152,4052.307593,4389.743482,4021.538363,4188.717846,4333.846048,3999.999902,4313.333228,4486.153736,4396.922969,4315.89733
4.0703125,3930.256314,4485.640916,4586.153734,4267.692203,4048.71785,4394.358867,4027.692209,4191.281949,4330.769125,3992.307595,4309.743484,4480.512711,4392.307585,4314.358869
4.078125,3932.307596,4489.230659,4584.615273,4269.230665,4032.820414,4398.974251,4028.20503,4186.666564,4331.794766,3989.230672,4304.102459,4473.333224,4386.666559,4311.794766
4.0859375,3934.871699,4484.615275,4589.230657,4270.256306,4027.179389,4404.102456,4031.281953,4185.128103,4335.384509,3992.820415,4301.025536,4471.281942,4384.102457,4309.230664
4.09375,3936.922981,4478.461429,4591.281939,4260.512716,4043.589645,4411.281943,4037.435799,4191.794769,4335.384509,3996.410159,4304.102459,4472.307583,4383.076816,4304.615279
4.1015625,3939.487083,4485.128095,4592.30758,4246.666563,4047.179388,4416.922969,4039.999901,4190.256308,4331.281945,3989.743492,4307.692202,4474.871685,4381.025534,4292.307587
4.109375,3937.948622,4494.358864,4591.281939,4236.410153,4037.948619,4418.46143,4036.410158,4182.05118,4331.281945,3984.615287,4304.102459,4470.769121,4383.076816,4279.999895
4.1171875,3935.89734,4496.410146,4591.79476,4233.84605,4038.97426,4414.871687,4025.128107,4174.871693,4328.717843,3987.17939,4298.974254,4464.102455,4384.102457,4275.897331
4.125,3933.846058,4496.410146,4593.333221,4237.435794,4041.025542,4411.281943,4019.487081,4168.205026,4324.615279,3986.153749,4299.999895,4464.615275,4380.512713,4274.87169
4.1328125,3934.871699,4500.51271,4593.333221,4242.563999,4034.871696,4409.743482,4020.512722,4166.666565,4327.179381,3985.640928,4305.1281,4470.256301,4382.051175,4274.87169
4.140625,3936.922981,4501.025531,4590.769119,4242.563999,4029.743491,4404.615277,4014.358876,4166.153744,4331.281945,3995.384518,4307.179382,4467.179378,4389.230662,4273.846049
4.1484375,3934.871699,4497.435787,4588.205016,4239.999896,4027.692209,4396.922969,4004.615287,4164.102462,4329.230663,4001.538364,4306.153741,4458.461429,4388.205021,4266.666562
4.15625,3927.179391,4493.846044,4586.666555,4242.563999,4024.102466,4393.846046,4005.640928,4167.179385,4329.743484,3999.487082,4303.076818,4456.410147,4379.999893,4256.922973
4.1640625,3924.615289,4488.205018,4582.563991,4246.153742,4018.974261,4392.307585,4008.717851,4169.230667,4332.307586,3998.974261,4299.999895,4456.410147,4378.974252,4253.84605
4.171875,3926.666571,4483.589634,4581.53835,4243.58964,4019.487081,4390.256303,4005.640928,4165.128103,4328.717843,3997.94862,4297.948613,4455.384506,4381.025534,4254.871691
4.1796875,3925.64093,4478.974249,4582.563991,4241.538358,4033.846055,4393.846046,4010.256312,4172.820411,4331.794766,3999.999902,4297.435792,4452.307583,4379.487072,4257.435793
4.1875,3923.589648,4472.307583,4584.102452,4241.538358,4043.589645,4399.487072,4019.999902,4187.179385,4338.461432,4002.564005,4297.435792,4451.794763,4376.92297,4259.999896
4.1953125,3925.64093,4468.205019,4581.53835,4238.974255,4043.589645,4402.051174,4022.564004,4189.743487,4336.922971,3998.974261,4297.435792,4450.256301,4377.43579,4266.153742
4.203125,3929.230673,4461.538352,4578.974247,4236.922973,4047.692209,4404.102456,4018.46144,4181.025539,4331.281945,3995.384518,4293.333228,4449.743481,4377.948611,4274.35887
4.2109375,3928.717853,4452.307583,4577.948606,4241.025537,4055.384516,4412.307584,4020.512722,4179.999898,4331.281945,3999.487082,4294.358869,4448.71784,4380.512713,4278.461434
4.21875,3930.769135,4449.743481,4583.589632,4242.563999,4055.897337,4426.153738,4022.051184,4187.692205,4334.358868,4002.051184,4302.563997,4451.281942,4386.666559,4282.051177
4.2265625,3932.820417,4451.281942,4585.128093,4244.10246,4060.512721,4430.769122,4017.435799,4190.769128,4332.820407,4003.589646,4307.179382,4451.794763,4388.205021,4288.205023
4.234375,3934.871699,4455.384506,4583.589632,4246.153742,4068.205029,4425.640917,4018.974261,4184.102462,4327.692202,4003.076825,4304.615279,4449.743481,4384.615277,4291.794767
4.2421875,3934.871699,4464.102455,4583.076811,4242.563999,4067.692208,4429.743481,4027.692209,4178.974257,4328.205022,4001.538364,4306.153741,4449.743481,4384.102457,4290.769126
4.25,3934.358878,4469.23066,4585.640914,4239.487076,4068.205029,4436.922968,4028.71785,4177.948616,4329.230663,4004.102466,4312.307587,4453.333224,4387.17938,4292.820408
4.2578125,3932.307596,4463.076814,4585.128093,4241.025537,4073.846054,4428.71784,4019.487081,4174.871693,4325.64092,4003.589646,4311.281946,4449.23066,4387.6922,4292.820408
4.265625,3930.769135,4454.871686,4582.563991,4238.974255,4073.333234,4417.94861,4010.769133,4171.79477,4326.666561,3998.974261,4305.64092,4438.46143,4385.640918,4288.205023
4.2734375,3932.307596,4454.358865,4582.563991,4241.025537,4069.23067,4417.94861,4013.333235,4175.384513,4332.820407,4002.564005,4305.1281,4433.846045,4384.615277,4283.589639
4.28125,3931.794776,4455.384506,4582.05117,4250.256306,4067.692208,4419.999892,4018.974261,4181.025539,4334.358868,4006.666569,4303.076818,4432.820404,4383.076816,4279.999895
4.2890625,3928.717853,4448.71784,4579.487068,4251.281947,4064.615285,4416.922969,4015.384517,4182.564,4332.307586,4001.538364,4296.922972,4430.769122,4378.974252,4275.384511
4.296875,3928.717853,4437.435789,4574.358863,4250.256306,4064.102465,4414.358866,4017.435799,4186.666564,4333.846048,3998.461441,4294.358869,4426.666558,4375.384508,4269.743485
4.3046875,3927.179391,4432.820404,4572.820401,4253.84605,4060.512721,4413.846046,4027.179389,4188.205026,4332.820407,3996.922979,4289.230664,4418.46143,4370.769124,4261.025537
4.3125,3924.102468,4433.846045,4571.79476,4254.35887,4052.820414,4417.94861,4030.256312,4188.717846,4332.820407,3995.384518,4284.102459,4411.281943,4370.256303,4252.307588
4.3203125,3927.692212,4435.384507,4572.820401,4256.410152,4060.512721,4423.076815,4022.051184,4187.179385,4336.922971,3998.461441,4285.640921,4412.820405,4371.794765,4246.153742
4.328125,3931.794776,4435.384507,4573.846042,4264.10246,4075.897336,4428.71784,4026.666568,4187.692205,4336.922971,3998.974261,4285.1281,4412.820405,4372.820406,4241.025537
4.3359375,3930.769135,4430.256302,4577.948606,4263.589639,4072.307593,4432.820404,4039.999901,4191.281949,4332.820407,3994.871697,4281.025536,4411.794764,4373.846047,4243.58964
4.34375,3932.820417,4426.666558,4581.025529,4256.410152,4068.205029,4432.820404,4037.948619,4191.281949,4332.307586,3996.410159,4283.076818,4414.358866,4375.384508,4255.384511
4.3515625,3942.051186,4428.20502,4584.615273,4256.410152,4072.820413,4431.794763,4026.153748,4181.538359,4333.846048,3998.461441,4286.666562,4418.46143,4376.410149,4264.10246
4.359375,3947.179391,4429.743481,4585.128093,4261.025537,4074.871695,4434.358866,4027.692209,4177.948616,4333.846048,3997.4358,4287.692203,4416.410148,4377.43579,4267.179383
4.3671875,3948.717852,4434.871686,4589.743478,4267.179383,4077.948618,4437.948609,4032.307594,4183.589641,4336.922971,4004.615287,4293.846049,4415.897328,4379.999893,4272.820408
4.375,3950.769134,4448.205019,4598.461426,4274.35887,4078.974259,4439.487071,4027.692209,4182.564,4338.974253,4014.358876,4305.1281,4421.538353,4385.128098,4282.563998
4.3828125,3953.846057,4451.794763,4601.538349,4276.922972,4075.384516,4441.538353,4029.743491,4185.128103,4335.89733,4010.256312,4307.179382,4427.692199,4386.153739,4290.769126
4.390625,3949.743493,4438.97425,4594.871683,4272.307588,4079.48708,4442.563994,4037.948619,4193.333231,4331.794766,3999.487082,4297.948613,4419.487071,4380.512713,4290.256305
4.3984375,3940.512724,4432.307584,4587.179375,4267.692203,4083.076823,4437.435789,4035.897337,4192.82041,4329.743484,3996.922979,4291.281946,4404.615277,4377.43579,4282.563998
4.40625,3935.89734,4438.46143,4585.640914,4268.717844,4074.358875,4425.640917,4033.333235,4189.230667,4330.256304,3999.999902,4290.769126,4398.461431,4379.487072,4279.487075
4.4140625,3938.461442,4441.538353,4583.589632,4269.743485,4067.692208,4421.538353,4034.358876,4192.82041,4331.794766,4000.512723,4290.769126,4395.384508,4380.512713,4283.076818
4.421875,3941.538365,4434.871686,4582.563991,4270.256306,4071.281952,4430.256302,4033.846055,4193.846051,4330.769125,3997.94862,4289.230664,4393.846046,4378.461431,4286.666562
4.4296875,3944.102468,4434.871686,4584.102452,4275.897331,4075.897336,4441.538353,4038.97426,4195.897333,4331.281945,3997.94862,4290.256305,4394.358867,4379.487072,4289.230664
4.4375,3947.692211,4444.615276,4589.743478,4278.461434,4078.974259,4444.615276,4039.999901,4195.897333,4331.794766,3996.410159,4289.230664,4396.410149,4379.487072,4291.281946
4.4453125,3949.230673,4446.153737,4589.230657,4276.922972,4076.922977,4449.23066,4038.46144,4189.230667,4330.769125,3995.897338,4291.281946,4395.897328,4379.487072,4291.794767
4.453125,3952.307596,4444.615276,4589.230657,4284.61528,4067.692208,4457.435788,4040.512722,4188.717846,4331.794766,4000.512723,4295.897331,4397.94861,4382.051175,4292.307587
4.4609375,3953.846057,4451.794763,4590.769119,4293.333228,4065.640926,4457.435788,4039.999901,4193.846051,4332.820407,4003.076825,4293.333228,4397.43579,4383.589636,4289.230664
4.46875,3952.820416,4453.846045,4588.717837,4288.205023,4066.153747,4449.23066,4030.256312,4187.179385,4330.256304,3997.94862,4285.640921,4391.794764,4381.538354,4283.589639
4.4765625,3951.281955,4447.692199,4585.128093,4284.102459,4064.102465,4446.666558,4028.71785,4183.076821,4329.230663,3996.922979,4284.102459,4390.769123,4381.025534,4282.563998
4.484375,3953.846057,4450.769122,4584.615273,4284.61528,4057.435798,4446.153737,4033.333235,4188.205026,4329.743484,4001.538364,4288.717844,4394.871687,4382.051175,4278.974254
4.4921875,3952.820416,4451.281942,4580.512709,4282.051177,4049.23067,4441.025532,4026.153748,4182.564,4330.769125,4002.051184,4287.692203,4389.743482,4381.025534,4270.256306
4.5,3949.743493,4445.128096,4577.948606,4279.999895,4043.589645,4439.999891,4019.999902,4174.358872,4333.846048,4003.589646,4286.153741,4384.615277,4381.538354,4266.153742
4.5078125,3951.281955,4450.256301,4581.025529,4283.589639,4047.692209,4447.692199,4026.666568,4181.025539,4334.358868,4006.666569,4289.230664,4389.743482,4383.076816,4263.589639
4.515625,3955.384519,4456.410147,4582.563991,4285.1281,4054.358875,4453.846045,4036.410158,4194.358872,4333.333227,4007.179389,4290.256305,4391.794764,4382.051175,4255.384511
4.5234375,3954.871698,4454.358865,4585.128093,4285.1281,4051.281952,4456.410147,4039.999901,4198.974256,4333.846048,4004.102466,4289.230664,4389.743482,4382.051175,4250.769127
4.53125,3953.846057,4453.333224,4583.589632,4285.1281,4055.897337,4455.384506,4036.922978,4189.743487,4328.717843,3993.846056,4284.61528,4388.205021,4379.999893,4249.230665
4.5390625,3953.846057,4455.897327,4578.461427,4281.538357,4071.794772,4450.256301,4032.307594,4178.974257,4324.615279,3985.128108,4281.538357,4385.128098,4375.384508,4236.410153
4.546875,3955.897339,4457.948609,4579.487068,4283.589639,4072.820413,4448.205019,4033.846055,4184.615282,4331.794766,3990.256313,4282.563998,4382.563995,4378.461431,4220.512717
4.5546875,3959.487083,4454.358865,4585.128093,4287.179382,4060.512721,4449.743481,4034.358876,4191.794769,4335.384509,3996.410159,4282.051177,4384.615277,4378.974252,4211.794769
4.5625,3963.589647,4446.666558,4585.128093,4286.153741,4063.589644,4449.23066,4032.307594,4188.717846,4331.281945,3998.461441,4284.102459,4385.640918,4375.897329,4207.179384
4.5703125,3964.102467,4442.563994,4584.615273,4282.051177,4073.333234,4447.692199,4034.871696,4186.153744,4329.230663,3996.410159,4286.153741,4385.640918,4374.871688,4198.461436
4.578125,3962.051185,4447.179378,4578.461427,4279.999895,4075.384516,4449.743481,4039.487081,4189.230667,4332.307586,3992.307595,4283.589639,4381.025534,4373.846047,4190.769128
4.5859375,3961.538365,4453.333224,4577.435786,4281.538357,4082.051182,4449.23066,4033.846055,4186.666564,4333.846048,3992.820415,4280.512716,4378.974252,4371.794765,4194.871692
4.59375,3965.128108,4453.333224,4585.640914,4287.179382,4086.153746,4447.692199,4029.743491,4186.666564,4335.89733,4004.102466,4288.717844,4379.487072,4375.897329,4203.589641
4.6015625,3966.153749,4448.205019,4587.692196,4287.179382,4077.435798,4452.307583,4036.922978,4188.717846,4335.384509,4005.640928,4289.743485,4376.92297,4379.487072,4202.051179
4.609375,3959.487083,4446.666558,4574.871683,4277.948613,4076.410157,4457.435788,4037.435799,4178.974257,4331.281945,3992.820415,4275.897331,4366.66656,4373.846047,4194.871692
4.6171875,3956.41016,4449.23066,4569.743478,4272.307588,4083.076823,4456.410147,4024.102466,4172.30759,4332.307586,3990.769133,4271.281947,4363.589637,4370.769124,4194.871692
4.625,3958.461442,4455.897327,4576.922965,4274.87169,4079.9999,4452.307583,4020.512722,4181.538359,4336.41015,4001.025543,4281.538357,4368.717842,4376.92297,4200.512718
4.6328125,3962.564006,4464.615275,4581.025529,4277.435793,4078.461439,4450.256301,4034.871696,4190.256308,4336.41015,4004.102466,4286.666562,4370.769124,4380.512713,4203.589641
4.640625,3964.615288,4468.205019,4577.435786,4276.410152,4085.640926,4451.794763,4043.076824,4193.333231,4333.846048,3997.4358,4281.538357,4364.615278,4375.897329,4202.051179
4.6484375,3965.640929,4469.74348,4573.846042,4276.922972,4086.153746,4456.922968,4036.410158,4196.922974,4331.281945,3993.846056,4276.410152,4360.512714,4370.769124,4195.897333
4.65625,3966.153749,4479.48707,4577.948606,4275.897331,4079.9999,4458.97425,4033.333235,4200.512718,4332.307586,3996.410159,4278.974254,4363.076816,4372.820406,4196.922974
4.6640625,3966.153749,4487.692198,4580.512709,4273.846049,4079.9999,4456.410147,4038.46144,4201.025538,4334.358868,3999.487082,4284.102459,4363.589637,4375.897329,4204.615282
4.671875,3965.640929,4487.692198,4577.435786,4273.333229,4077.435798,4456.410147,4039.999901,4195.897333,4333.846048,3997.4358,4282.563998,4361.538355,4373.333226,4202.051179
4.6796875,3968.205031,4494.358864,4578.461427,4274.87169,4070.769131,4462.051173,4038.46144,4194.871692,4333.333227,3993.846056,4280.512716,4360.512714,4372.820406,4197.435795
4.6875,3970.769134,4498.461428,4586.666555,4275.384511,4070.769131,4465.640916,4032.307594,4198.461436,4336.41015,3994.871697,4282.051177,4361.025534,4373.846047,4197.435795
4.6953125,3965.640929,4487.179377,4581.53835,4268.205024,4077.435798,4464.615275,4026.153748,4192.30759,4334.358868,3996.410159,4280.512716,4352.820406,4370.769124,4192.30759
4.703125,3964.615288,4481.538352,4574.358863,4260.512716,4073.333234,4461.538352,4026.153748,4182.05118,4328.717843,3994.871697,4276.922972,4348.717842,4368.717842,4188.205026
4.7109375,3971.281954,4485.640916,4579.999888,4263.076819,4063.076824,4463.589634,4027.179389,4186.666564,4332.820407,3995.897338,4279.999895,4351.281945,4369.743483,4195.384513
4.71875,3972.820416,4477.948608,4583.589632,4267.692203,4059.999901,4463.589634,4023.076825,4187.179385,4334.358868,3993.846056,4277.948613,4352.307586,4366.153739,4201.025538
4.7265625,3969.230672,4468.717839,4573.333222,4264.10246,4059.48708,4457.435788,4023.076825,4178.461436,4328.717843,3985.128108,4271.794767,4347.692201,4362.051175,4195.897333
4.734375,3970.769134,4474.358865,4566.666555,4257.948614,4048.71785,4450.256301,4025.128107,4180.512718,4328.205022,3981.025544,4271.794767,4350.769124,4363.589637,4187.692205
4.7421875,3971.794775,4481.025531,4563.589632,4255.384511,4037.435799,4446.666558,4023.076825,4183.076821,4329.743484,3980.512723,4270.256306,4351.281945,4361.025534,4182.564
4.75,3969.743493,4486.153736,4561.025529,4251.794768,4037.435799,4448.205019,4023.076825,4178.461436,4326.666561,3976.410159,4265.640921,4344.615278,4353.846047,4185.128103
4.7578125,3972.820416,4495.384505,4566.153734,4254.871691,4044.102465,4455.897327,4028.20503,4181.538359,4328.205022,3978.974262,4268.205024,4344.615278,4353.846047,4197.948615
4.765625,3988.205031,4505.128095,4582.05117,4266.666562,4046.666568,4464.102455,4033.846055,4191.281949,4334.871689,3989.743492,4280.512716,4355.897329,4366.66656,4214.358871
4.7734375,3997.4358,4511.794761,4594.871683,4275.384511,4051.281952,4469.23066,4038.97426,4194.871692,4335.89733,3993.333236,4287.179382,4364.102457,4374.871688,4223.58964
4.78125,3993.846056,4516.410146,4595.384503,4276.410152,4060.512721,4477.435788,4040.512722,4195.384513,4335.89733,3991.281954,4287.179382,4358.974252,4371.794765,4225.640922
4.7890625,3993.333236,4518.461428,4595.384503,4274.35887,4064.615285,4482.051172,4035.384517,4194.358872,4336.41015,3995.897338,4289.230664,4355.384509,4369.743483,4235.384512
4.796875,3998.461441,4511.281941,4593.846042,4268.205024,4064.615285,4479.48707,4035.897337,4190.256308,4332.820407,3997.4358,4287.179382,4356.41015,4368.205021,4248.717845
4.8046875,3995.384518,4498.974249,4586.153734,4256.410152,4062.051183,4474.358865,4040.512722,4190.769128,4331.281945,3991.794774,4279.999895,4352.820406,4360.512714,4246.666563
4.8125,3991.281954,4503.589633,4579.999888,4250.256306,4056.922978,4471.794762,4034.358876,4195.897333,4334.871689,3994.358877,4280.512716,4347.179381,4360.512714,4246.666563
4.8203125,3992.307595,4516.922966,4583.076811,4249.743486,4050.769132,4466.153737,4023.076825,4191.281949,4334.358868,3997.94862,4286.153741,4349.743483,4366.153739,4254.871691
4.828125,3991.281954,4513.846043,4580.512709,4248.205024,4049.23067,4464.615275,4028.71785,4192.30759,4333.846048,3995.384518,4283.589639,4349.230663,4364.102457,4253.84605
4.8359375,3994.358877,4510.2563,4581.53835,4251.281947,4048.205029,4467.692198,4042.564004,4203.589641,4335.89733,3996.922979,4278.974254,4348.205022,4359.999893,4253.84605
4.84375,4000.512723,4518.974248,4589.743478,4256.922973,4043.076824,4467.179378,4041.538363,4208.717846,4335.384509,4001.025543,4283.589639,4351.281945,4364.102457,4267.692203
4.8515625,3998.974261,4517.948607,4591.79476,4256.922973,4042.564004,4461.538352,4028.71785,4194.358872,4329.230663,3991.794774,4284.102459,4351.794765,4363.076816,4272.820408
4.859375,3996.410159,4508.205018,4587.179375,4254.871691,4055.384516,4457.435788,4022.564004,4179.487077,4326.15374,3983.076826,4276.922972,4349.230663,4360.512714,4270.256306
4.8671875,4001.025543,4507.179377,4591.281939,4256.922973,4067.692208,4457.948609,4027.179389,4176.922975,4327.692202,3985.640928,4274.87169,4350.256304,4362.563996,4275.384511
4.875,3999.487082,4508.717838,4594.358862,4256.922973,4068.205029,4457.435788,4027.692209,4178.461436,4329.230663,3988.717851,4275.897331,4351.281945,4364.102457,4276.410152
4.8828125,3992.820415,4509.743479,4590.256298,4252.820409,4070.769131,4449.743481,4022.564004,4174.871693,4328.717843,3985.128108,4274.35887,4348.717842,4364.102457,4272.820408
4.890625,3994.358877,4511.794761,4591.281939,4252.820409,4079.48708,4448.205019,4030.256312,4178.461436,4331.281945,3985.640928,4276.922972,4344.102458,4366.153739,4273.846049
4.8984375,4000.512723,4512.307582,4592.30758,4254.35887,4088.717849,4455.384506,4039.999901,4188.205026,4334.871689,3992.820415,4281.538357,4343.076817,4365.640919,4272.307588
4.90625,3998.461441,4521.538351,4589.230657,4249.230665,4096.410156,4452.820404,4031.281953,4188.205026,4335.384509,3995.384518,4278.974254,4342.051176,4365.128098,4265.128101
4.9140625,3998.461441,4542.051171,4592.30758,4250.256306,4094.871695,4447.179378,4024.102466,4189.743487,4335.89733,3999.999902,4283.076818,4340.512714,4373.846047,4268.205024
4.921875,4003.076825,4552.820401,4598.974247,4261.025537,4097.948618,4457.435788,4034.871696,4198.461436,4336.922971,4007.69221,4291.794767,4345.640919,4381.025534,4271.281947
4.9296875,4000.512723,4548.205017,4592.30758,4258.974255,4111.794771,4471.794762,4039.999901,4198.974256,4336.41015,4004.615287,4284.61528,4344.615278,4375.897329,4261.538357
4.9375,3990.769133,4544.615273,4582.563991,4247.179383,4112.820412,4469.23066,4035.384517,4194.871692,4335.89733,3994.871697,4271.281947,4335.384509,4368.205021,4246.153742
4.9453125,3989.230672,4546.153735,4579.999888,4247.179383,4109.230669,4462.051173,4039.487081,4198.974256,4335.89733,3996.410159,4275.897331,4330.256304,4370.769124,4242.051178
4.953125,3997.94862,4547.179376,4587.179375,4253.84605,4112.307592,4462.563993,4045.640927,4198.461436,4333.333227,4000.512723,4286.666562,4335.89733,4375.897329,4248.205024
4.9609375,4002.051184,4552.307581,4591.79476,4256.922973,4113.333233,4464.615275,4044.615286,4196.410154,4332.820407,3998.461441,4288.717844,4337.948612,4378.461431,4250.256306
4.96875,4001.025543,4558.974247,4595.384503,4261.538357,4113.333233,4459.999891,4039.999901,4196.922974,4334.358868,3998.461441,4286.666562,4334.871689,4378.461431,4246.666563
4.9765625,4005.128107,4566.153734,4599.999888,4270.256306,4118.461438,4454.358865,4038.46144,4194.358872,4334.871689,4003.076825,4286.153741,4330.256304,4381.025534,4249.743486
4.984375,4015.384517,4570.769119,4606.153734,4277.948613,4115.384515,4455.384506,4035.897337,4188.205026,4334.871689,4004.102466,4289.743485,4332.307586,4384.615277,4257.948614
4.9921875,4012.820415,4567.179375,4601.538349,4277.435793,4114.871694,4453.333224,4029.230671,4184.102462,4333.333227,3999.487082,4289.743485,4332.820407,4383.076816,4259.999896
5,4001.025543,4553.333222,4592.820401,4265.640921,4126.666566,4447.179378,4025.128107,4177.948616,4329.230663,3991.281954,4278.974254,4323.076817,4375.897329,4254.871691
5.0078125,3998.974261,4544.102453,4592.30758,4260.512716,4134.358873,4447.179378,4031.794773,4174.871693,4332.307586,3988.717851,4273.846049,4317.435792,4373.333226,4256.410152
5.015625,4006.153748,4547.179376,4596.922965,4268.717844,4130.256309,4449.743481,4034.358876,4186.153744,4336.922971,3995.384518,4279.999895,4321.025535,4374.871688,4263.076819
5.0234375,4005.640928,4548.205017,4594.871683,4271.794767,4126.666566,4445.640917,4029.230671,4193.333231,4334.358868,3996.922979,4281.025536,4318.461433,4372.307585,4263.589639
5.03125,4000.512723,4542.563991,4592.820401,4268.205024,4125.640925,4444.615276,4033.333235,4192.82041,4334.358868,3996.922979,4278.974254,4312.307587,4371.281944,4261.538357
5.0390625,4002.564005,4542.051171,4599.487067,4273.846049,4124.102463,4452.820404,4045.640927,4201.538359,4339.487073,4006.153748,4288.205023,4321.538356,4375.897329,4264.61528
5.046875,4008.20503,4549.743478,4605.640913,4279.999895,4128.717848,4458.97425,4051.794773,4211.794769,4339.999894,4013.846056,4301.025536,4334.871689,4378.461431,4266.153742
5.0546875,4006.153748,4551.28194,4604.102452,4268.717844,4134.871694,4452.307583,4046.666568,4205.128102,4332.820407,4003.589646,4294.87169,4332.820407,4372.820406,4258.461434
5.0625,4000.512723,4544.615273,4595.384503,4252.820409,4133.846053,4443.076814,4040.512722,4195.897333,4330.256304,3995.384518,4281.538357,4322.563997,4368.205021,4248.717845
5.0703125,3998.974261,4542.051171,4593.333221,4253.333229,4125.640925,4439.487071,4036.922978,4188.717846,4331.794766,3993.846056,4282.051177,4323.589638,4365.640919,4241.538358
5.078125,3998.461441,4542.563991,4592.820401,4256.410152,4121.02554,4439.999891,4033.846055,4174.871693,4328.205022,3984.615287,4281.025536,4323.076817,4361.538355,4234.358871
5.0859375,4001.538364,4542.563991,4590.769119,4252.820409,4118.461438,4435.897327,4030.256312,4167.179385,4322.563997,3977.4358,4275.897331,4323.589638,4360.512714,4229.230666
5.09375,4008.20503,4544.102453,4591.79476,4259.487075,4115.897335,4436.922968,4031.794773,4172.820411,4327.179381,3986.666569,4283.589639,4330.256304,4368.717842,4229.743486
5.1015625,4009.230671,4543.589632,4596.410144,4264.10246,4114.871694,4444.102455,4033.846055,4170.769129,4331.794766,3992.820415,4289.230664,4333.846048,4373.333226,4228.205025
5.109375,4005.128107,4542.051171,4594.871683,4254.871691,4109.743489,4446.153737,4033.846055,4166.153744,4329.230663,3988.717851,4280.512716,4328.205022,4367.692201,4221.538358
5.1171875,4009.743492,4546.666555,4594.871683,4254.871691,4099.487079,4443.589635,4034.358876,4174.358872,4330.256304,3991.794774,4277.948613,4326.15374,4363.076816,4217.948615
5.125,4011.281953,4555.384504,4596.410144,4265.128101,4096.922977,4440.512712,4035.897337,4185.128103,4335.384509,3996.922979,4279.999895,4324.102458,4362.051175,4218.461435
5.1328125,4005.128107,4562.563991,4592.30758,4261.538357,4102.564002,4435.897327,4038.97426,4191.281949,4335.384509,3990.256313,4273.846049,4319.487074,4359.487073,4223.58964
5.140625,4006.153748,4564.615273,4591.79476,4253.333229,4102.564002,4432.820404,4042.051183,4196.922974,4335.89733,3987.69221,4273.333229,4319.999894,4358.461432,4229.743486
5.1484375,4011.794774,4562.563991,4593.846042,4253.333229,4096.922977,4436.410148,4041.538363,4201.538359,4336.41015,3993.846056,4282.051177,4324.102458,4362.051175,4235.897332
5.15625,4011.281953,4562.05117,4594.358862,4254.35887,4097.948618,4439.487071,4041.025542,4207.692205,4336.922971,3998.974261,4284.102459,4327.692202,4367.692201,4243.076819
5.1640625,4012.820415,4562.05117,4594.871683,4255.897332,4101.025541,4439.999891,4046.153747,4213.846051,4339.999894,3996.922979,4281.538357,4331.794766,4370.256303,4248.717845
5.171875,4016.922979,4562.563991,4598.461426,4255.897332,4099.9999,4443.589635,4046.153747,4203.07682,4335.89733,3990.256313,4277.948613,4336.922971,4366.153739,4246.153742
5.1796875,4013.333235,4565.128093,4595.897324,4251.794768,4104.615284,4448.71784,4037.435799,4189.230667,4330.769125,3983.589646,4276.922972,4343.589637,4361.538355,4241.025537
5.1875,4015.384517,4566.666555,4596.410144,4255.897332,4110.76913,4446.666558,4036.410158,4191.794769,4331.794766,3984.102467,4275.897331,4351.281945,4361.538355,4235.897332
5.1953125,4026.666568,4569.743478,4604.615272,4272.820408,4103.589643,4444.102455,4041.538363,4190.256308,4331.794766,3992.307595,4277.948613,4358.461432,4365.128098,4231.794768
5.203125,4027.179389,4572.820401,4612.8204,4278.974254,4096.410156,4444.615276,4036.410158,4171.79477,4328.205022,3991.794774,4284.61528,4365.640919,4365.640919,4233.33323
5.2109375,4019.999902,4575.384504,4608.717836,4270.769126,4109.743489,4446.153737,4033.333235,4169.743488,4331.794766,3988.717851,4287.179382,4367.17938,4368.717842,4239.487076
5.21875,4024.615286,4576.922965,4606.666554,4268.205024,4122.051181,4446.153737,4042.564004,4183.076821,4337.435791,3992.820415,4283.076818,4368.205021,4369.743483,4239.487076
5.2265625,4029.230671,4574.871683,4609.743477,4273.846049,4117.948617,4449.743481,4045.128106,4185.640923,4338.974253,3997.4358,4280.512716,4368.205021,4365.128098,4231.281948
5.234375,4024.615286,4569.230657,4604.102452,4272.820408,4112.307592,4451.281942,4036.410158,4188.205026,4337.435791,3995.897338,4281.025536,4364.615278,4362.051175,4224.615281
5.2421875,4020.512722,4567.179375,4590.256298,4271.281947,4112.820412,4449.23066,4037.435799,4203.589641,4337.948612,3997.94862,4282.051177,4360.512714,4366.66656,4227.179384
5.25,4021.025543,4569.743478,4589.743478,4274.35887,4113.846053,4453.846045,4046.153747,4210.256307,4339.487073,4002.564005,4282.563998,4358.974252,4366.66656,4231.281948
5.2578125,4019.999902,4570.256298,4591.281939,4277.435793,4121.538361,4460.512711,4049.23067,4204.102461,4338.974253,3999.999902,4277.948613,4351.281945,4359.999893,4228.717845
5.265625,4019.999902,4568.205016,4585.640914,4276.410152,4123.589643,4458.461429,4050.769132,4207.179384,4337.435791,3997.4358,4275.384511,4346.15374,4358.461432,4224.615281
5.2734375,4015.384517,4566.153734,4583.589632,4272.820408,4110.25631,4452.307583,4054.871696,4214.358871,4336.922971,3993.333236,4274.87169,4348.205022,4358.461432,4226.153743
5.28125,4013.333235,4561.53835,4584.102452,4264.10246,4108.205028,4450.769122,4048.71785,4209.743487,4333.333227,3985.640928,4268.205024,4345.640919,4355.384509,4232.307589
5.2890625,4016.410158,4561.53835,4585.640914,4259.487075,4121.02554,4446.666558,4036.410158,4197.948615,4332.307586,3980.512723,4268.205024,4344.615278,4363.589637,4246.153742
5.296875,4022.051184,4575.384504,4592.30758,4264.10246,4129.230668,4439.487071,4037.435799,4194.358872,4335.384509,3986.153749,4278.461434,4348.717842,4383.589636,4261.025537
